TIME [ps]	E_TOT [kJ/mol]	E_POT [kJ/mol]	TEMP. [K]	PRES. [kJ/mol/nm^3]
0.001000	-523.886898	-669.266118	93.303951	16.647036	
0.002000	-523.886898	-669.236878	93.285186	16.645444	
0.003000	-523.886897	-669.197189	93.259714	16.643259	
0.004000	-523.886897	-669.147059	93.227541	16.640483	
0.005000	-523.886896	-669.086498	93.188673	16.637115	
0.006000	-523.886896	-669.015513	93.143116	16.633156	
0.007000	-523.886896	-668.934112	93.090873	16.628607	
0.008000	-523.886896	-668.842302	93.031950	16.623466	
0.009000	-523.886895	-668.740089	92.966350	16.617734	
0.010000	-523.886896	-668.627479	92.894077	16.611411	
0.011000	-523.886896	-668.504477	92.815134	16.604497	
0.012000	-523.886896	-668.371087	92.729525	16.596992	
0.013000	-523.886896	-668.227314	92.637251	16.588894	
0.014000	-523.886897	-668.073160	92.538316	16.580204	
0.015000	-523.886897	-667.908630	92.432721	16.570920	
0.016000	-523.886898	-667.733727	92.320468	16.561044	
0.017000	-523.886898	-667.548452	92.201559	16.550573	
0.018000	-523.886899	-667.352809	92.075995	16.539506	
0.019000	-523.886900	-667.146799	91.943778	16.527844	
0.020000	-523.886901	-666.930426	91.804910	16.515585	
0.021000	-523.886901	-666.703690	91.659391	16.502728	
0.022000	-523.886902	-666.466595	91.507224	16.489272	
0.023000	-523.886903	-666.219143	91.348409	16.475216	
0.024000	-523.886904	-665.961336	91.182949	16.460559	
0.025000	-523.886905	-665.693178	91.010845	16.445299	
0.026000	-523.886906	-665.414671	90.832100	16.429435	
0.027000	-523.886907	-665.125821	90.646715	16.412966	
0.028000	-523.886908	-664.826630	90.454695	16.395891	
0.029000	-523.886909	-664.517104	90.256042	16.378208	
0.030000	-523.886910	-664.197250	90.050760	16.359915	
0.031000	-523.886911	-663.867073	89.838853	16.341012	
0.032000	-523.886912	-663.526583	89.620326	16.321495	
0.033000	-523.886913	-663.175786	89.395186	16.301365	
0.034000	-523.886914	-662.814695	89.163438	16.280619	
0.035000	-523.886915	-662.443320	88.925090	16.259256	
0.036000	-523.886915	-662.061674	88.680150	16.237274	
0.037000	-523.886916	-661.669772	88.428628	16.214671	
0.038000	-523.886917	-661.267630	88.170534	16.191446	
0.039000	-523.886917	-660.855267	87.905880	16.167597	
0.040000	-523.886918	-660.432702	87.634679	16.143123	
0.041000	-523.886918	-659.999959	87.356946	16.118022	
0.042000	-523.886918	-659.557060	87.072695	16.092292	
0.043000	-523.886918	-659.104035	86.781944	16.065931	
0.044000	-523.886918	-658.640912	86.484713	16.038939	
0.045000	-523.886918	-658.167723	86.181022	16.011314	
0.046000	-523.886917	-657.684505	85.870894	15.983054	
0.047000	-523.886917	-657.191294	85.554354	15.954158	
0.048000	-523.886916	-656.688134	85.231427	15.924625	
0.049000	-523.886915	-656.175068	84.902144	15.894453	
0.050000	-523.886914	-655.652145	84.566534	15.863641	
0.051000	-523.886913	-655.119416	84.224631	15.832188	
0.052000	-523.886911	-654.576939	83.876472	15.800093	
0.053000	-523.886909	-654.024773	83.522095	15.767355	
0.054000	-523.886907	-653.462982	83.161540	15.733974	
0.055000	-523.886905	-652.891633	82.794852	15.699949	
0.056000	-523.886902	-652.310802	82.422077	15.665278	
0.057000	-523.886899	-651.720564	82.043266	15.629963	
0.058000	-523.886896	-651.121002	81.658471	15.594002	
0.059000	-523.886893	-650.512204	81.267749	15.557396	
0.060000	-523.886889	-649.894263	80.871159	15.520145	
0.061000	-523.886885	-649.267276	80.468763	15.482248	
0.062000	-523.886880	-648.631347	80.060629	15.443707	
0.063000	-523.886875	-647.986585	79.646826	15.404523	
0.064000	-523.886870	-647.333105	79.227428	15.364696	
0.065000	-523.886864	-646.671029	78.802512	15.324227	
0.066000	-523.886858	-646.000482	78.372161	15.283119	
0.067000	-523.886852	-645.321599	77.936460	15.241372	
0.068000	-523.886845	-644.634518	77.495498	15.198989	
0.069000	-523.886838	-643.939388	77.049370	15.155973	
0.070000	-523.886830	-643.236359	76.598174	15.112325	
0.071000	-523.886822	-642.525593	76.142011	15.068049	
0.072000	-523.886813	-641.807255	75.680990	15.023149	
0.073000	-523.886804	-641.081520	75.215221	14.977627	
0.074000	-523.886794	-640.348568	74.744821	14.931489	
0.075000	-523.886784	-639.608588	74.269910	14.884739	
0.076000	-523.886774	-638.861774	73.790614	14.837382	
0.077000	-523.886763	-638.108330	73.307062	14.789424	
0.078000	-523.886752	-637.348465	72.819391	14.740870	
0.079000	-523.886740	-636.582397	72.327738	14.691727	
0.080000	-523.886727	-635.810352	71.832250	14.642003	
0.081000	-523.886714	-635.032561	71.333075	14.591705	
0.082000	-523.886701	-634.249266	70.830367	14.540840	
0.083000	-523.886687	-633.460715	70.324286	14.489419	
0.084000	-523.886672	-632.667162	69.814995	14.437451	
0.085000	-523.886657	-631.868871	69.302664	14.384947	
0.086000	-523.886642	-631.066111	68.787465	14.331917	
0.087000	-523.886626	-630.259162	68.269578	14.278373	
0.088000	-523.886609	-629.448308	67.749185	14.224328	
0.089000	-523.886592	-628.633842	67.226474	14.169796	
0.090000	-523.886575	-627.816063	66.701637	14.114792	
0.091000	-523.886557	-626.995279	66.174871	14.059330	
0.092000	-523.886539	-626.171801	65.646378	14.003428	
0.093000	-523.886520	-625.345952	65.116362	13.947103	
0.094000	-523.886501	-624.518057	64.585034	13.890372	
0.095000	-523.886481	-623.688450	64.052607	13.833257	
0.096000	-523.886461	-622.857469	63.519299	13.775776	
0.097000	-523.886440	-622.025461	62.985332	13.717951	
0.098000	-523.886420	-621.192775	62.450930	13.659803	
0.099000	-523.886398	-620.359768	61.916322	13.601356	
0.100000	-523.886377	-619.526800	61.381740	13.542632	
0.101000	-523.886355	-618.694237	60.847417	13.483654	
0.102000	-523.886333	-617.862450	60.313593	13.424445	
0.103000	-523.886310	-617.031812	59.780507	13.365028	
0.104000	-523.886288	-616.202702	59.248400	13.305427	
0.105000	-523.886265	-615.375499	58.717519	13.245664	
0.106000	-523.886242	-614.550589	58.188109	13.185761	
0.107000	-523.886218	-613.728357	57.660418	13.125741	
0.108000	-523.886195	-612.909192	57.134695	13.065624	
0.109000	-523.886171	-612.093483	56.611191	13.005433	
0.110000	-523.886148	-611.281621	56.090156	12.945188	
0.111000	-523.886124	-610.473999	55.571841	12.884911	
0.112000	-523.886100	-609.671007	55.056498	12.824624	
0.113000	-523.886077	-608.873036	54.544378	12.764347	
0.114000	-523.886053	-608.080478	54.035732	12.704103	
0.115000	-523.886030	-607.293720	53.530808	12.643913	
0.116000	-523.886006	-606.513150	53.029856	12.583800	
0.117000	-523.885983	-605.739153	52.533121	12.523787	
0.118000	-523.885960	-604.972109	52.040850	12.463896	
0.119000	-523.885937	-604.212396	51.553283	12.404153	
0.120000	-523.885915	-603.460389	51.070661	12.344582	
0.121000	-523.885892	-602.716456	50.593222	12.285206	
0.122000	-523.885870	-601.980961	50.121198	12.226054	
0.123000	-523.885849	-601.254263	49.654819	12.167153	
0.124000	-523.885828	-600.536714	49.194311	12.108530	
0.125000	-523.885807	-599.828658	48.739897	12.050218	
0.126000	-523.885787	-599.130435	48.291792	11.992249	
0.127000	-523.885767	-598.442373	47.850209	11.934660	
0.128000	-523.885747	-597.764796	47.415354	11.877489	
0.129000	-523.885729	-597.098016	46.987429	11.820781	
0.130000	-523.885711	-596.442338	46.566628	11.764586	
0.131000	-523.885693	-595.798055	46.153140	11.708959	
0.132000	-523.885676	-595.165452	45.747149	11.653959	
0.133000	-523.885660	-594.544803	45.348828	11.599647	
0.134000	-523.885645	-593.936371	44.958349	11.546081	
0.135000	-523.885630	-593.340408	44.575871	11.493308	
0.136000	-523.885616	-592.757153	44.201548	11.441362	
0.137000	-523.885602	-592.186835	43.835529	11.390263	
0.138000	-523.885590	-591.629670	43.477949	11.340026	
0.139000	-523.885578	-591.085861	43.128942	11.290664	
0.140000	-523.885567	-590.555598	42.788628	11.242194	
0.141000	-523.885557	-590.039060	42.457122	11.194642	
0.142000	-523.885548	-589.536410	42.134529	11.148041	
0.143000	-523.885539	-589.047801	41.820946	11.102437	
0.144000	-523.885532	-588.573370	41.516462	11.057889	
0.145000	-523.885525	-588.113240	41.221157	11.014481	
0.146000	-523.885519	-587.667522	40.935100	10.972325	
0.147000	-523.885514	-587.236314	40.658355	10.931566	
0.148000	-523.885510	-586.819697	40.390974	10.892361	
0.149000	-523.885507	-586.417740	40.133002	10.854807	
0.150000	-523.885504	-586.030500	39.884474	10.818893	
0.151000	-523.885502	-585.658017	39.645416	10.784536	
0.152000	-523.885502	-585.300320	39.415848	10.751648	
0.153000	-523.885502	-584.957423	39.195778	10.720173	
0.154000	-523.885503	-584.629327	38.985206	10.690078	
0.155000	-523.885504	-584.316020	38.784125	10.661352	
0.156000	-523.885507	-584.017476	38.592520	10.633995	
0.157000	-523.885510	-583.733659	38.410364	10.608010	
0.158000	-523.885514	-583.464516	38.237627	10.583405	
0.159000	-523.885519	-583.209985	38.074266	10.560188	
0.160000	-523.885524	-582.969990	37.920234	10.538366	
0.161000	-523.885530	-582.744444	37.775476	10.517945	
0.162000	-523.885537	-582.533248	37.639927	10.498926	
0.163000	-523.885545	-582.336293	37.513516	10.481310	
0.164000	-523.885553	-582.153456	37.396167	10.465092	
0.165000	-523.885562	-581.984607	37.287795	10.450265	
0.166000	-523.885571	-581.829604	37.188308	10.436815	
0.167000	-523.885582	-581.688295	37.097610	10.424727	
0.168000	-523.885592	-581.560518	37.015596	10.413978	
0.169000	-523.885603	-581.446103	36.942158	10.404543	
0.170000	-523.885615	-581.344871	36.877180	10.396390	
0.171000	-523.885627	-581.256634	36.820542	10.389483	
0.172000	-523.885640	-581.181197	36.772118	10.383782	
0.173000	-523.885653	-581.118355	36.731779	10.379248	
0.174000	-523.885666	-581.067900	36.699388	10.375836	
0.175000	-523.885680	-581.029613	36.674807	10.373505	
0.176000	-523.885694	-581.003272	36.657892	10.372215	
0.177000	-523.885708	-580.988646	36.648496	10.371927	
0.178000	-523.885723	-580.985501	36.646468	10.372605	
0.179000	-523.885738	-580.993597	36.651654	10.374218	
0.180000	-523.885753	-581.012687	36.663897	10.376734	
0.181000	-523.885769	-581.042524	36.683036	10.380127	
0.182000	-523.885785	-581.082853	36.708909	10.384373	
0.183000	-523.885800	-581.133418	36.741351	10.389454	
0.184000	-523.885816	-581.193958	36.780195	10.395364	
0.185000	-523.885833	-581.264211	36.825273	10.402140	
0.186000	-523.885849	-581.343909	36.876412	10.410000	
0.187000	-523.885865	-581.432786	36.933443	10.419665	
0.188000	-523.885882	-581.530572	36.996191	10.431097	
0.189000	-523.885898	-581.636996	37.064483	10.443523	
0.190000	-523.885915	-581.751785	37.138144	10.456677	
0.191000	-523.885931	-581.874667	37.216998	10.470473	
0.192000	-523.885948	-582.005367	37.300871	10.484862	
0.193000	-523.885964	-582.143611	37.389585	10.499808	
0.194000	-523.885980	-582.289125	37.482965	10.515278	
0.195000	-523.885997	-582.441637	37.580836	10.531242	
0.196000	-523.886013	-582.600872	37.683022	10.547668	
0.197000	-523.886029	-582.766558	37.789349	10.564528	
0.198000	-523.886045	-582.938424	37.899641	10.581792	
0.199000	-523.886061	-583.116200	38.013727	10.599431	
0.200000	-523.886077	-583.299618	38.131434	10.617416	
0.201000	-523.886093	-583.488410	38.252591	10.635719	
0.202000	-523.886108	-583.682313	38.377027	10.654314	
0.203000	-523.886123	-583.881062	38.504573	10.673171	
0.204000	-523.886139	-584.084398	38.635064	10.692265	
0.205000	-523.886154	-584.292063	38.768333	10.711570	
0.206000	-523.886168	-584.503800	38.904216	10.731060	
0.207000	-523.886183	-584.719359	39.042552	10.750712	
0.208000	-523.886197	-584.938488	39.183179	10.770500	
0.209000	-523.886211	-585.160940	39.325939	10.790404	
0.210000	-523.886225	-585.386474	39.470677	10.810399	
0.211000	-523.886239	-585.614847	39.617237	10.830466	
0.212000	-523.886252	-585.845823	39.765468	10.850585	
0.213000	-523.886266	-586.079169	39.915221	10.870735	
0.214000	-523.886279	-586.314654	40.066346	10.890898	
0.215000	-523.886291	-586.552052	40.218699	10.911057	
0.216000	-523.886304	-586.791141	40.372138	10.931195	
0.217000	-523.886316	-587.031701	40.526521	10.951295	
0.218000	-523.886328	-587.273518	40.681710	10.971343	
0.219000	-523.886340	-587.516380	40.837571	10.991323	
0.220000	-523.886351	-587.760081	40.993970	11.011223	
0.221000	-523.886362	-588.004416	41.150776	11.031027	
0.222000	-523.886373	-588.249186	41.307862	11.050724	
0.223000	-523.886384	-588.494197	41.465103	11.070302	
0.224000	-523.886394	-588.739257	41.622375	11.089749	
0.225000	-523.886405	-588.984179	41.779558	11.109054	
0.226000	-523.886414	-589.228779	41.936536	11.128206	
0.227000	-523.886424	-589.472880	42.093193	11.147196	
0.228000	-523.886433	-589.716305	42.249416	11.166013	
0.229000	-523.886442	-589.958885	42.405097	11.184648	
0.230000	-523.886451	-590.200452	42.560129	11.203094	
0.231000	-523.886460	-590.440844	42.714406	11.221340	
0.232000	-523.886468	-590.679902	42.867828	11.239380	
0.233000	-523.886476	-590.917472	43.020294	11.257205	
0.234000	-523.886484	-591.153404	43.171710	11.274809	
0.235000	-523.886492	-591.387552	43.321980	11.292184	
0.236000	-523.886499	-591.619772	43.471014	11.309324	
0.237000	-523.886506	-591.849927	43.618722	11.326222	
0.238000	-523.886513	-592.077882	43.765018	11.342873	
0.239000	-523.886519	-592.303507	43.909819	11.359271	
0.240000	-523.886526	-592.526675	44.053044	11.375412	
0.241000	-523.886532	-592.747263	44.194613	11.391289	
0.242000	-523.886538	-592.965153	44.334450	11.406898	
0.243000	-523.886543	-593.180230	44.472482	11.422236	
0.244000	-523.886549	-593.392382	44.608637	11.437298	
0.245000	-523.886554	-593.601502	44.742847	11.452082	
0.246000	-523.886559	-593.807486	44.875043	11.466583	
0.247000	-523.886564	-594.010234	45.005163	11.480799	
0.248000	-523.886568	-594.209649	45.133144	11.494727	
0.249000	-523.886573	-594.405638	45.258926	11.508366	
0.250000	-523.886577	-594.598111	45.382453	11.521713	
0.251000	-523.886581	-594.786983	45.503668	11.534767	
0.252000	-523.886585	-594.972172	45.622519	11.547526	
0.253000	-523.886588	-595.153596	45.738954	11.559991	
0.254000	-523.886592	-595.331182	45.852926	11.572159	
0.255000	-523.886595	-595.504856	45.964388	11.584031	
0.256000	-523.886598	-595.674549	46.073294	11.595605	
0.257000	-523.886600	-595.840195	46.179604	11.606883	
0.258000	-523.886603	-596.001731	46.283275	11.617863	
0.259000	-523.886605	-596.159097	46.384270	11.628545	
0.260000	-523.886608	-596.312236	46.482553	11.638929	
0.261000	-523.886610	-596.461094	46.578089	11.649015	
0.262000	-523.886612	-596.605621	46.670845	11.658801	
0.263000	-523.886614	-596.745769	46.760790	11.668287	
0.264000	-523.886615	-596.881493	46.847896	11.677472	
0.265000	-523.886617	-597.012750	46.932135	11.686353	
0.266000	-523.886618	-597.139501	47.013483	11.694929	
0.267000	-523.886619	-597.261710	47.091916	11.703197	
0.268000	-523.886620	-597.379342	47.167411	11.711155	
0.269000	-523.886621	-597.492367	47.239949	11.718800	
0.270000	-523.886622	-597.600755	47.309512	11.726128	
0.271000	-523.886622	-597.704480	47.376082	11.733137	
0.272000	-523.886623	-597.803519	47.439644	11.739823	
0.273000	-523.886623	-597.897850	47.500186	11.746182	
0.274000	-523.886623	-597.987455	47.557694	11.752212	
0.275000	-523.886623	-598.072317	47.612158	11.757907	
0.276000	-523.886623	-598.152423	47.663570	11.763267	
0.277000	-523.886623	-598.227760	47.711921	11.768286	
0.278000	-523.886622	-598.298319	47.757206	11.772963	
0.279000	-523.886622	-598.364093	47.799420	11.777295	
0.280000	-523.886622	-598.425077	47.838559	11.781280	
0.281000	-523.886621	-598.481267	47.874622	11.784915	
0.282000	-523.886620	-598.532663	47.907609	11.788199	
0.283000	-523.886619	-598.579267	47.937520	11.791130	
0.284000	-523.886618	-598.621081	47.964356	11.793707	
0.285000	-523.886617	-598.658111	47.988123	11.795929	
0.286000	-523.886616	-598.690363	48.008823	11.797795	
0.287000	-523.886615	-598.717848	48.026463	11.799306	
0.288000	-523.886613	-598.740576	48.041051	11.800461	
0.289000	-523.886612	-598.758560	48.052594	11.801260	
0.290000	-523.886610	-598.771814	48.061102	11.801704	
0.291000	-523.886609	-598.780356	48.066585	11.801793	
0.292000	-523.886607	-598.784204	48.069055	11.801530	
0.293000	-523.886605	-598.783377	48.068526	11.800914	
0.294000	-523.886603	-598.777898	48.065011	11.799948	
0.295000	-523.886601	-598.767789	48.058524	11.798632	
0.296000	-523.886599	-598.753077	48.049083	11.796970	
0.297000	-523.886597	-598.733788	48.036705	11.794963	
0.298000	-523.886594	-598.709950	48.021407	11.792614	
0.299000	-523.886592	-598.681593	48.003210	11.789925	
0.300000	-523.886590	-598.648749	47.982132	11.786898	
0.301000	-523.886587	-598.611452	47.958196	11.783537	
0.302000	-523.886585	-598.569735	47.931424	11.779845	
0.303000	-523.886582	-598.523635	47.901839	11.775825	
0.304000	-523.886579	-598.473190	47.869465	11.771481	
0.305000	-523.886576	-598.418438	47.834328	11.766815	
0.306000	-523.886574	-598.359422	47.796453	11.761831	
0.307000	-523.886571	-598.296182	47.755867	11.756534	
0.308000	-523.886568	-598.228762	47.712600	11.750926	
0.309000	-523.886564	-598.157207	47.666678	11.745011	
0.310000	-523.886561	-598.081565	47.618133	11.738792	
0.311000	-523.886558	-598.001881	47.566994	11.732274	
0.312000	-523.886555	-597.918206	47.513294	11.725460	
0.313000	-523.886551	-597.830591	47.457065	11.718352	
0.314000	-523.886548	-597.739087	47.398340	11.710954	
0.315000	-523.886544	-597.643747	47.337154	11.703268	
0.316000	-523.886541	-597.544627	47.273541	11.695298	
0.317000	-523.886537	-597.441782	47.207538	11.687047	
0.318000	-523.886533	-597.335269	47.139181	11.678517	
0.319000	-523.886530	-597.225148	47.068507	11.669711	
0.320000	-523.886526	-597.111478	46.995557	11.660633	
0.321000	-523.886522	-596.994320	46.920368	11.651284	
0.322000	-523.886518	-596.873737	46.842981	11.641670	
0.323000	-523.886514	-596.749793	46.763437	11.631792	
0.324000	-523.886509	-596.622553	46.681777	11.621656	
0.325000	-523.886505	-596.492084	46.598045	11.611265	
0.326000	-523.886501	-596.358453	46.512283	11.600624	
0.327000	-523.886497	-596.221728	46.424537	11.589737	
0.328000	-523.886492	-596.081981	46.334850	11.578610	
0.329000	-523.886488	-595.939282	46.243269	11.567247	
0.330000	-523.886483	-595.793704	46.149841	11.555655	
0.331000	-523.886478	-595.645321	46.054612	11.543838	
0.332000	-523.886474	-595.494207	45.957631	11.531803	
0.333000	-523.886469	-595.340439	45.858946	11.519556	
0.334000	-523.886464	-595.184095	45.758608	11.507103	
0.335000	-523.886459	-595.025251	45.656666	11.494451	
0.336000	-523.886454	-594.863989	45.553171	11.481606	
0.337000	-523.886449	-594.700388	45.448176	11.468575	
0.338000	-523.886444	-594.534530	45.341732	11.455364	
0.339000	-523.886439	-594.366498	45.233893	11.441982	
0.340000	-523.886434	-594.196376	45.124712	11.428434	
0.341000	-523.886428	-594.024248	45.014244	11.414727	
0.342000	-523.886423	-593.850200	44.902544	11.400869	
0.343000	-523.886418	-593.674319	44.789668	11.386866	
0.344000	-523.886412	-593.496692	44.675671	11.372724	
0.345000	-523.886407	-593.317408	44.560610	11.358451	
0.346000	-523.886401	-593.136555	44.444543	11.344053	
0.347000	-523.886396	-592.954225	44.327528	11.329536	
0.348000	-523.886390	-592.770508	44.209622	11.314905	
0.349000	-523.886384	-592.585495	44.090885	11.300168	
0.350000	-523.886379	-592.399279	43.971376	11.285329	
0.351000	-523.886373	-592.211953	43.851155	11.270396	
0.352000	-523.886367	-592.023610	43.730280	11.255373	
0.353000	-523.886361	-591.834345	43.608814	11.240266	
0.354000	-523.886356	-591.644251	43.486816	11.225083	
0.355000	-523.886350	-591.453425	43.364348	11.209830	
0.356000	-523.886344	-591.261960	43.241471	11.194514	
0.357000	-523.886338	-591.069954	43.118246	11.179142	
0.358000	-523.886332	-590.877503	42.994734	11.163723	
0.359000	-523.886326	-590.684701	42.870999	11.148267	
0.360000	-523.886320	-590.491647	42.747101	11.132783	
0.361000	-523.886314	-590.298436	42.623103	11.117282	
0.362000	-523.886308	-590.105165	42.499066	11.101778	
0.363000	-523.886302	-589.911931	42.375053	11.086284	
0.364000	-523.886296	-589.718831	42.251125	11.070817	
0.365000	-523.886290	-589.525959	42.127345	11.055395	
0.366000	-523.886284	-589.333413	42.003773	11.040040	
0.367000	-523.886278	-589.141289	41.880472	11.024773	
0.368000	-523.886273	-588.949681	41.757503	11.009621	
0.369000	-523.886267	-588.758685	41.634926	10.994608	
0.370000	-523.886261	-588.568396	41.512802	10.979754	
0.371000	-523.886255	-588.378906	41.391192	10.965074	
0.372000	-523.886249	-588.190309	41.270155	10.950571	
0.373000	-523.886244	-588.002699	41.149750	10.936239	
0.374000	-523.886238	-587.816165	41.030037	10.922063	
0.375000	-523.886232	-587.630800	40.911074	10.908023	
0.376000	-523.886227	-587.446692	40.792918	10.894098	
0.377000	-523.886221	-587.263930	40.675625	10.880269	
0.378000	-523.886216	-587.082603	40.559253	10.866519	
0.379000	-523.886211	-586.902796	40.443857	10.852835	
0.380000	-523.886206	-586.724594	40.329491	10.839207	
0.381000	-523.886200	-586.548081	40.216209	10.825628	
0.382000	-523.886195	-586.373339	40.104063	10.812094	
0.383000	-523.886190	-586.200449	39.993106	10.798602	
0.384000	-523.886186	-586.029490	39.883389	10.785151	
0.385000	-523.886181	-585.860540	39.774960	10.771744	
0.386000	-523.886176	-585.693674	39.667868	10.758382	
0.387000	-523.886172	-585.528966	39.562162	10.745068	
0.388000	-523.886167	-585.366487	39.457887	10.731809	
0.389000	-523.886163	-585.206309	39.355088	10.718608	
0.390000	-523.886159	-585.048499	39.253808	10.705474	
0.391000	-523.886155	-584.893123	39.154091	10.692413	
0.392000	-523.886151	-584.740244	39.055976	10.679433	
0.393000	-523.886147	-584.589925	38.959504	10.666544	
0.394000	-523.886144	-584.442224	38.864713	10.653755	
0.395000	-523.886140	-584.297199	38.771638	10.641077	
0.396000	-523.886137	-584.154903	38.680315	10.628522	
0.397000	-523.886134	-584.015390	38.590778	10.616099	
0.398000	-523.886131	-583.878708	38.503058	10.603823	
0.399000	-523.886128	-583.744905	38.417185	10.591705	
0.400000	-523.886125	-583.614025	38.333189	10.579759	
0.401000	-523.886123	-583.486110	38.251095	10.567997	
0.402000	-523.886121	-583.361199	38.170929	10.556433	
0.403000	-523.886118	-583.239328	38.092714	10.545079	
0.404000	-523.886116	-583.120532	38.016472	10.533947	
0.405000	-523.886115	-583.004841	37.942223	10.523050	
0.406000	-523.886113	-582.892283	37.869985	10.512397	
0.407000	-523.886112	-582.782884	37.799774	10.501999	
0.408000	-523.886110	-582.676666	37.731604	10.491863	
0.409000	-523.886109	-582.573649	37.665489	10.481997	
0.410000	-523.886108	-582.473849	37.601438	10.472409	
0.411000	-523.886107	-582.377281	37.539461	10.463103	
0.412000	-523.886107	-582.283956	37.479566	10.454086	
0.413000	-523.886107	-582.193881	37.421757	10.445363	
0.414000	-523.886106	-582.107063	37.366037	10.436938	
0.415000	-523.886106	-582.023503	37.312409	10.428816	
0.416000	-523.886106	-581.943202	37.260872	10.421003	
0.417000	-523.886107	-581.866156	37.211424	10.413502	
0.418000	-523.886107	-581.792360	37.164061	10.406319	
0.419000	-523.886108	-581.721804	37.118778	10.399458	
0.420000	-523.886109	-581.654478	37.075568	10.392922	
0.421000	-523.886110	-581.590366	37.034421	10.386717	
0.422000	-523.886111	-581.529454	36.995326	10.380846	
0.423000	-523.886112	-581.471720	36.958272	10.375313	
0.424000	-523.886114	-581.417143	36.923244	10.370121	
0.425000	-523.886115	-581.365700	36.890227	10.365272	
0.426000	-523.886117	-581.317362	36.859202	10.360770	
0.427000	-523.886119	-581.272100	36.830153	10.356614	
0.428000	-523.886121	-581.229883	36.803057	10.352807	
0.429000	-523.886123	-581.190678	36.777893	10.349349	
0.430000	-523.886125	-581.154447	36.754639	10.346239	
0.431000	-523.886128	-581.121153	36.733269	10.343475	
0.432000	-523.886130	-581.090755	36.713758	10.341056	
0.433000	-523.886133	-581.063211	36.696079	10.338978	
0.434000	-523.886136	-581.038477	36.680203	10.337239	
0.435000	-523.886139	-581.016508	36.666101	10.335832	
0.436000	-523.886142	-580.997254	36.653743	10.334753	
0.437000	-523.886145	-580.980668	36.643096	10.333996	
0.438000	-523.886148	-580.966699	36.634128	10.333554	
0.439000	-523.886151	-580.955294	36.626806	10.333419	
0.440000	-523.886154	-580.946399	36.621096	10.333582	
0.441000	-523.886158	-580.939961	36.616961	10.334037	
0.442000	-523.886161	-580.935923	36.614368	10.334772	
0.443000	-523.886165	-580.934228	36.613278	10.335780	
0.444000	-523.886168	-580.934819	36.613654	10.337049	
0.445000	-523.886172	-580.937636	36.615460	10.338570	
0.446000	-523.886176	-580.942621	36.618657	10.340333	
0.447000	-523.886179	-580.949713	36.623207	10.342326	
0.448000	-523.886183	-580.958853	36.629070	10.344539	
0.449000	-523.886186	-580.969978	36.636208	10.346960	
0.450000	-523.886190	-580.983029	36.644582	10.349580	
0.451000	-523.886194	-580.997943	36.654151	10.352386	
0.452000	-523.886198	-581.014659	36.664877	10.355369	
0.453000	-523.886201	-581.033116	36.676720	10.358516	
0.454000	-523.886205	-581.053252	36.689641	10.361818	
0.455000	-523.886208	-581.075005	36.703600	10.365262	
0.456000	-523.886212	-581.098316	36.718559	10.368839	
0.457000	-523.886216	-581.123124	36.734478	10.372538	
0.458000	-523.886219	-581.149368	36.751319	10.376348	
0.459000	-523.886223	-581.176989	36.769044	10.380259	
0.460000	-523.886226	-581.205928	36.787614	10.384259	
0.461000	-523.886229	-581.236127	36.806994	10.388340	
0.462000	-523.886233	-581.267528	36.827145	10.392490	
0.463000	-523.886236	-581.300076	36.848032	10.396699	
0.464000	-523.886239	-581.333715	36.869620	10.400958	
0.465000	-523.886242	-581.368390	36.891872	10.405257	
0.466000	-523.886245	-581.404048	36.914755	10.409586	
0.467000	-523.886248	-581.440636	36.938235	10.413935	
0.468000	-523.886251	-581.478103	36.962280	10.418296	
0.469000	-523.886254	-581.516401	36.986857	10.422661	
0.470000	-523.886256	-581.555479	37.011936	10.427020	
0.471000	-523.886259	-581.595291	37.037485	10.431368	
0.472000	-523.886261	-581.635791	37.063477	10.435695	
0.473000	-523.886264	-581.676934	37.089881	10.439997	
0.474000	-523.886266	-581.718678	37.116670	10.444267	
0.475000	-523.886268	-581.760980	37.143819	10.448500	
0.476000	-523.886270	-581.803802	37.171300	10.452692	
0.477000	-523.886272	-581.847103	37.199089	10.456838	
0.478000	-523.886274	-581.890846	37.227162	10.460935	
0.479000	-523.886276	-581.934997	37.255497	10.464981	
0.480000	-523.886278	-581.979521	37.284071	10.468973	
0.481000	-523.886279	-582.024385	37.312863	10.472909	
0.482000	-523.886281	-582.069557	37.341854	10.476790	
0.483000	-523.886282	-582.115009	37.371024	10.480614	
0.484000	-523.886283	-582.160712	37.400355	10.484381	
0.485000	-523.886285	-582.206638	37.429830	10.488092	
0.486000	-523.886286	-582.252763	37.459432	10.491749	
0.487000	-523.886287	-582.299062	37.489146	10.495353	
0.488000	-523.886288	-582.345513	37.518957	10.498907	
0.489000	-523.886288	-582.392093	37.548852	10.502415	
0.490000	-523.886289	-582.438783	37.578816	10.505880	
0.491000	-523.886290	-582.485563	37.608840	10.509309	
0.492000	-523.886291	-582.532416	37.638909	10.512707	
0.493000	-523.886291	-582.579325	37.669015	10.516082	
0.494000	-523.886292	-582.626273	37.699146	10.519444	
0.495000	-523.886292	-582.673248	37.729294	10.522801	
0.496000	-523.886292	-582.720234	37.759449	10.526167	
0.497000	-523.886293	-582.767218	37.789603	10.529555	
0.498000	-523.886293	-582.814190	37.819749	10.532977	
0.499000	-523.886293	-582.861136	37.849879	10.536449	
0.500000	-523.886293	-582.908048	37.879987	10.539985	
0.501000	-523.886293	-582.954915	37.910066	10.543596	
0.502000	-523.886294	-583.001728	37.940110	10.547295	
0.503000	-523.886294	-583.048478	37.970114	10.551087	
0.504000	-523.886294	-583.095156	38.000072	10.554976	
0.505000	-523.886294	-583.141755	38.029979	10.558962	
0.506000	-523.886294	-583.188268	38.059831	10.563041	
0.507000	-523.886294	-583.234686	38.089622	10.567205	
0.508000	-523.886294	-583.281003	38.119348	10.571446	
0.509000	-523.886294	-583.327213	38.149005	10.575753	
0.510000	-523.886294	-583.373307	38.178589	10.580118	
0.511000	-523.886294	-583.419280	38.208094	10.584530	
0.512000	-523.886294	-583.465124	38.237517	10.588980	
0.513000	-523.886294	-583.510833	38.266852	10.593462	
0.514000	-523.886294	-583.556400	38.296097	10.597967	
0.515000	-523.886294	-583.601817	38.325245	10.602492	
0.516000	-523.886294	-583.647077	38.354293	10.607030	
0.517000	-523.886294	-583.692173	38.383236	10.611579	
0.518000	-523.886294	-583.737096	38.412067	10.616134	
0.519000	-523.886294	-583.781838	38.440783	10.620694	
0.520000	-523.886294	-583.826391	38.469377	10.625257	
0.521000	-523.886294	-583.870746	38.497843	10.629820	
0.522000	-523.886294	-583.914893	38.526176	10.634383	
0.523000	-523.886295	-583.958822	38.554370	10.638944	
0.524000	-523.886295	-584.002522	38.582416	10.643505	
0.525000	-523.886295	-584.045984	38.610310	10.648063	
0.526000	-523.886296	-584.089195	38.638042	10.652621	
0.527000	-523.886296	-584.132143	38.665606	10.657177	
0.528000	-523.886296	-584.174817	38.692993	10.661735	
0.529000	-523.886297	-584.217202	38.720196	10.666295	
0.530000	-523.886297	-584.259286	38.747205	10.670859	
0.531000	-523.886298	-584.301054	38.774011	10.675431	
0.532000	-523.886298	-584.342491	38.800605	10.680012	
0.533000	-523.886299	-584.383583	38.826978	10.684607	
0.534000	-523.886300	-584.424314	38.853118	10.689219	
0.535000	-523.886300	-584.464668	38.879017	10.693852	
0.536000	-523.886301	-584.504627	38.904662	10.698510	
0.537000	-523.886302	-584.544176	38.930043	10.703197	
0.538000	-523.886302	-584.583295	38.955150	10.707917	
0.539000	-523.886303	-584.621968	38.979969	10.712675	
0.540000	-523.886304	-584.660175	39.004490	10.717472	
0.541000	-523.886305	-584.697898	39.028700	10.722311	
0.542000	-523.886306	-584.735118	39.052587	10.727194	
0.543000	-523.886307	-584.771815	39.076139	10.732122	
0.544000	-523.886308	-584.807970	39.099342	10.737096	
0.545000	-523.886308	-584.843563	39.122185	10.742113	
0.546000	-523.886309	-584.878573	39.144654	10.747174	
0.547000	-523.886310	-584.912980	39.166736	10.752275	
0.548000	-523.886311	-584.946764	39.188417	10.757414	
0.549000	-523.886312	-584.979904	39.209686	10.762589	
0.550000	-523.886313	-585.012379	39.230527	10.767795	
0.551000	-523.886314	-585.044169	39.250929	10.773029	
0.552000	-523.886315	-585.075252	39.270878	10.778289	
0.553000	-523.886316	-585.105610	39.290361	10.783569	
0.554000	-523.886317	-585.135220	39.309364	10.788868	
0.555000	-523.886318	-585.164063	39.327875	10.794181	
0.556000	-523.886319	-585.192119	39.345880	10.799505	
0.557000	-523.886320	-585.219367	39.363368	10.804836	
0.558000	-523.886321	-585.245788	39.380324	10.810171	
0.559000	-523.886321	-585.271363	39.396737	10.815507	
0.560000	-523.886322	-585.296072	39.412595	10.820839	
0.561000	-523.886323	-585.319896	39.427885	10.826161	
0.562000	-523.886324	-585.342819	39.442596	10.831471	
0.563000	-523.886325	-585.364821	39.456716	10.836760	
0.564000	-523.886325	-585.385885	39.470235	10.842022	
0.565000	-523.886326	-585.405994	39.483140	10.847251	
0.566000	-523.886327	-585.425133	39.495423	10.852436	
0.567000	-523.886327	-585.443284	39.507072	10.857569	
0.568000	-523.886328	-585.460433	39.518078	10.862641	
0.569000	-523.886328	-585.476566	39.528431	10.867641	
0.570000	-523.886329	-585.491667	39.538123	10.872559	
0.571000	-523.886329	-585.505725	39.547145	10.877386	
0.572000	-523.886330	-585.518725	39.555488	10.882112	
0.573000	-523.886330	-585.530657	39.563146	10.886727	
0.574000	-523.886331	-585.541508	39.570110	10.891223	
0.575000	-523.886331	-585.551268	39.576374	10.895591	
0.576000	-523.886331	-585.559927	39.581931	10.899826	
0.577000	-523.886331	-585.567477	39.586776	10.903919	
0.578000	-523.886331	-585.573907	39.590903	10.907866	
0.579000	-523.886332	-585.579212	39.594308	10.911661	
0.580000	-523.886332	-585.583383	39.596985	10.915300	
0.581000	-523.886332	-585.586416	39.598931	10.918779	
0.582000	-523.886332	-585.588303	39.600142	10.922096	
0.583000	-523.886331	-585.589041	39.600616	10.925247	
0.584000	-523.886331	-585.588626	39.600350	10.928232	
0.585000	-523.886331	-585.587055	39.599341	10.931048	
0.586000	-523.886331	-585.584325	39.597589	10.933696	
0.587000	-523.886331	-585.580435	39.595093	10.936175	
0.588000	-523.886330	-585.575383	39.591851	10.938486	
0.589000	-523.886330	-585.569170	39.587864	10.940629	
0.590000	-523.886330	-585.561797	39.583132	10.942605	
0.591000	-523.886329	-585.553264	39.577656	10.944416	
0.592000	-523.886329	-585.543574	39.571437	10.946063	
0.593000	-523.886328	-585.532730	39.564478	10.947549	
0.594000	-523.886327	-585.520734	39.556779	10.948875	
0.595000	-523.886327	-585.507592	39.548345	10.950044	
0.596000	-523.886326	-585.493307	39.539177	10.951058	
0.597000	-523.886325	-585.477886	39.529281	10.951920	
0.598000	-523.886325	-585.461334	39.518658	10.952633	
0.599000	-523.886324	-585.443659	39.507315	10.953199	
0.600000	-523.886323	-585.424867	39.495255	10.953620	
0.601000	-523.886322	-585.404967	39.482483	10.953900	
0.602000	-523.886321	-585.383966	39.469006	10.954040	
0.603000	-523.886320	-585.361875	39.454829	10.954043	
0.604000	-523.886320	-585.338703	39.439957	10.953913	
0.605000	-523.886319	-585.314460	39.424399	10.953650	
0.606000	-523.886318	-585.289156	39.408160	10.953257	
0.607000	-523.886317	-585.262804	39.391247	10.952738	
0.608000	-523.886315	-585.235414	39.373669	10.952094	
0.609000	-523.886314	-585.206999	39.355433	10.951329	
0.610000	-523.886313	-585.177571	39.336547	10.950444	
0.611000	-523.886312	-585.147144	39.317020	10.949444	
0.612000	-523.886311	-585.115731	39.296860	10.948331	
0.613000	-523.886310	-585.083346	39.276076	10.947108	
0.614000	-523.886309	-585.050003	39.254678	10.945779	
0.615000	-523.886307	-585.015717	39.232674	10.944348	
0.616000	-523.886306	-584.980504	39.210075	10.942819	
0.617000	-523.886305	-584.944378	39.186890	10.941193	
0.618000	-523.886304	-584.907355	39.163129	10.939476	
0.619000	-523.886302	-584.869451	39.138804	10.937670	
0.620000	-523.886301	-584.830683	39.113923	10.935778	
0.621000	-523.886300	-584.791067	39.088499	10.933802	
0.622000	-523.886298	-584.750620	39.062541	10.931743	
0.623000	-523.886297	-584.709360	39.036061	10.929603	
0.624000	-523.886296	-584.667303	39.009070	10.927382	
0.625000	-523.886294	-584.624469	38.981580	10.925080	
0.626000	-523.886293	-584.580873	38.953601	10.922696	
0.627000	-523.886292	-584.536535	38.925146	10.920229	
0.628000	-523.886290	-584.491473	38.896227	10.917678	
0.629000	-523.886289	-584.445706	38.866854	10.915042	
0.630000	-523.886288	-584.399251	38.837040	10.912318	
0.631000	-523.886286	-584.352128	38.806798	10.909505	
0.632000	-523.886285	-584.304356	38.776139	10.906602	
0.633000	-523.886283	-584.255954	38.745075	10.903609	
0.634000	-523.886282	-584.206941	38.713620	10.900523	
0.635000	-523.886280	-584.157336	38.681784	10.897344	
0.636000	-523.886279	-584.107158	38.649582	10.894073	
0.637000	-523.886278	-584.056428	38.617024	10.890709	
0.638000	-523.886276	-584.005165	38.584124	10.887254	
0.639000	-523.886275	-583.953387	38.550894	10.883708	
0.640000	-523.886273	-583.901115	38.517347	10.880072	
0.641000	-523.886272	-583.848369	38.483496	10.876349	
0.642000	-523.886271	-583.795168	38.449353	10.872540	
0.643000	-523.886269	-583.741531	38.414930	10.868649	
0.644000	-523.886268	-583.687479	38.380240	10.864677	
0.645000	-523.886266	-583.633031	38.345296	10.860629	
0.646000	-523.886265	-583.578206	38.310110	10.856508	
0.647000	-523.886264	-583.523024	38.274695	10.852318	
0.648000	-523.886262	-583.467504	38.239064	10.848063	
0.649000	-523.886261	-583.411666	38.203228	10.843747	
0.650000	-523.886260	-583.355528	38.167200	10.839375	
0.651000	-523.886258	-583.299111	38.130993	10.834950	
0.652000	-523.886257	-583.242433	38.094618	10.830478	
0.653000	-523.886256	-583.185513	38.058088	10.825962	
0.654000	-523.886254	-583.128370	38.021414	10.821406	
0.655000	-523.886253	-583.071023	37.984609	10.816814	
0.656000	-523.886252	-583.013489	37.947685	10.812188	
0.657000	-523.886251	-582.955788	37.910654	10.807531	
0.658000	-523.886249	-582.897937	37.873526	10.802845	
0.659000	-523.886248	-582.839955	37.836314	10.798131	
0.660000	-523.886247	-582.781859	37.799029	10.793391	
0.661000	-523.886246	-582.723666	37.761682	10.788624	
0.662000	-523.886245	-582.665395	37.724284	10.783830	
0.663000	-523.886243	-582.607062	37.686847	10.779010	
0.664000	-523.886242	-582.548685	37.649382	10.774162	
0.665000	-523.886241	-582.490279	37.611898	10.769287	
0.666000	-523.886240	-582.431862	37.574407	10.764383	
0.667000	-523.886239	-582.373450	37.536918	10.759449	
0.668000	-523.886238	-582.315058	37.499444	10.754486	
0.669000	-523.886237	-582.256703	37.461992	10.749492	
0.670000	-523.886236	-582.198400	37.424574	10.744468	
0.671000	-523.886235	-582.140164	37.387199	10.739413	
0.672000	-523.886234	-582.082011	37.349877	10.734327	
0.673000	-523.886233	-582.023954	37.312617	10.729212	
0.674000	-523.886232	-581.966009	37.275429	10.724067	
0.675000	-523.886231	-581.908190	37.238321	10.718894	
0.676000	-523.886230	-581.850511	37.201303	10.713694	
0.677000	-523.886229	-581.792985	37.164384	10.708468	
0.678000	-523.886228	-581.735627	37.127572	10.703218	
0.679000	-523.886227	-581.678449	37.090877	10.697945	
0.680000	-523.886227	-581.621465	37.054305	10.692652	
0.681000	-523.886226	-581.564688	37.017866	10.687341	
0.682000	-523.886225	-581.508129	36.981567	10.682013	
0.683000	-523.886224	-581.451803	36.945417	10.676672	
0.684000	-523.886223	-581.395720	36.909424	10.671319	
0.685000	-523.886223	-581.339893	36.873595	10.665957	
0.686000	-523.886222	-581.284333	36.837938	10.660589	
0.687000	-523.886221	-581.229054	36.802460	10.655216	
0.688000	-523.886220	-581.174065	36.767168	10.649842	
0.689000	-523.886220	-581.119378	36.732071	10.644469	
0.690000	-523.886219	-581.065006	36.697175	10.639099	
0.691000	-523.886218	-581.010957	36.662488	10.633735	
0.692000	-523.886218	-580.957245	36.628016	10.628380	
0.693000	-523.886217	-580.903879	36.593767	10.623035	
0.694000	-523.886216	-580.850871	36.559747	10.617702	
0.695000	-523.886216	-580.798231	36.525963	10.612385	
0.696000	-523.886215	-580.745970	36.492422	10.607084	
0.697000	-523.886214	-580.694098	36.459131	10.601803	
0.698000	-523.886214	-580.642627	36.426097	10.596542	
0.699000	-523.886213	-580.591566	36.393327	10.591305	
0.700000	-523.886212	-580.540926	36.360827	10.586092	
0.701000	-523.886212	-580.490718	36.328604	10.580906	
0.702000	-523.886211	-580.440952	36.296665	10.575747	
0.703000	-523.886210	-580.391640	36.265017	10.570618	
0.704000	-523.886210	-580.342791	36.233666	10.565519	
0.705000	-523.886209	-580.294417	36.202620	10.560453	
0.706000	-523.886208	-580.246528	36.171886	10.555420	
0.707000	-523.886208	-580.199135	36.141470	10.550422	
0.708000	-523.886207	-580.152250	36.111379	10.545459	
0.709000	-523.886206	-580.105883	36.081622	10.540532	
0.710000	-523.886205	-580.060046	36.052204	10.535643	
0.711000	-523.886205	-580.014750	36.023134	10.530793	
0.712000	-523.886204	-579.970007	35.994418	10.525981	
0.713000	-523.886203	-579.925828	35.966065	10.521208	
0.714000	-523.886202	-579.882225	35.938081	10.516476	
0.715000	-523.886202	-579.839211	35.910476	10.511783	
0.716000	-523.886201	-579.796798	35.883255	10.507132	
0.717000	-523.886200	-579.754998	35.856429	10.502522	
0.718000	-523.886199	-579.713823	35.830003	10.497954	
0.719000	-523.886198	-579.673287	35.803988	10.493427	
0.720000	-523.886198	-579.633403	35.778391	10.488943	
0.721000	-523.886197	-579.594183	35.753221	10.484501	
0.722000	-523.886196	-579.555642	35.728485	10.480102	
0.723000	-523.886195	-579.517793	35.704194	10.475747	
0.724000	-523.886194	-579.480649	35.680356	10.471435	
0.725000	-523.886193	-579.444224	35.656980	10.467169	
0.726000	-523.886192	-579.408534	35.634074	10.462948	
0.727000	-523.886191	-579.373592	35.611649	10.458775	
0.728000	-523.886190	-579.339413	35.589714	10.454650	
0.729000	-523.886189	-579.306011	35.568277	10.450575	
0.730000	-523.886188	-579.273402	35.547349	10.446552	
0.731000	-523.886187	-579.241600	35.526939	10.442583	
0.732000	-523.886186	-579.210620	35.507058	10.438670	
0.733000	-523.886185	-579.180479	35.487714	10.434817	
0.734000	-523.886184	-579.151191	35.468917	10.431026	
0.735000	-523.886183	-579.122771	35.450678	10.427300	
0.736000	-523.886182	-579.095236	35.433007	10.423642	
0.737000	-523.886181	-579.068601	35.415913	10.420054	
0.738000	-523.886180	-579.042881	35.399407	10.416539	
0.739000	-523.886179	-579.018092	35.383498	10.413100	
0.740000	-523.886178	-578.994250	35.368197	10.409739	
0.741000	-523.886177	-578.971370	35.353513	10.406457	
0.742000	-523.886176	-578.949467	35.339457	10.403255	
0.743000	-523.886175	-578.928558	35.326038	10.400134	
0.744000	-523.886174	-578.908657	35.313266	10.397095	
0.745000	-523.886173	-578.889779	35.301151	10.394137	
0.746000	-523.886172	-578.871940	35.289703	10.391260	
0.747000	-523.886171	-578.855154	35.278930	10.388464	
0.748000	-523.886170	-578.839435	35.268842	10.385749	
0.749000	-523.886169	-578.824798	35.259449	10.383115	
0.750000	-523.886168	-578.811257	35.250759	10.380563	
0.751000	-523.886167	-578.798824	35.242780	10.378092	
0.752000	-523.886166	-578.787515	35.235522	10.375704	
0.753000	-523.886165	-578.777340	35.228993	10.373402	
0.754000	-523.886165	-578.768312	35.223200	10.371186	
0.755000	-523.886164	-578.760444	35.218150	10.369060	
0.756000	-523.886163	-578.753747	35.213852	10.367029	
0.757000	-523.886162	-578.748231	35.210313	10.365095	
0.758000	-523.886162	-578.743907	35.207538	10.363263	
0.759000	-523.886161	-578.740784	35.205534	10.361540	
0.760000	-523.886160	-578.738872	35.204307	10.359930	
0.761000	-523.886160	-578.738178	35.203863	10.358438	
0.762000	-523.886159	-578.738711	35.204205	10.357071	
0.763000	-523.886159	-578.740477	35.205339	10.355833	
0.764000	-523.886158	-578.743483	35.207269	10.354729	
0.765000	-523.886158	-578.747734	35.209997	10.353761	
0.766000	-523.886157	-578.753235	35.213527	10.352933	
0.767000	-523.886157	-578.759989	35.217862	10.352244	
0.768000	-523.886157	-578.767999	35.223003	10.351695	
0.769000	-523.886157	-578.777268	35.228952	10.351287	
0.770000	-523.886157	-578.787796	35.235709	10.351017	
0.771000	-523.886156	-578.799584	35.243275	10.350887	
0.772000	-523.886156	-578.812632	35.251649	10.350894	
0.773000	-523.886156	-578.826937	35.260830	10.351038	
0.774000	-523.886157	-578.842497	35.270816	10.351321	
0.775000	-523.886157	-578.859309	35.281606	10.351741	
0.776000	-523.886157	-578.877368	35.293196	10.352300	
0.777000	-523.886157	-578.896668	35.305583	10.352998	
0.778000	-523.886158	-578.917204	35.318762	10.353837	
0.779000	-523.886158	-578.938968	35.332730	10.354819	
0.780000	-523.886158	-578.961952	35.347481	10.355943	
0.781000	-523.886159	-578.986146	35.363008	10.357213	
0.782000	-523.886160	-579.011540	35.379306	10.358629	
0.783000	-523.886160	-579.038124	35.396366	10.360191	
0.784000	-523.886161	-579.065884	35.414182	10.361901	
0.785000	-523.886162	-579.094808	35.432745	10.363759	
0.786000	-523.886162	-579.124881	35.452046	10.365766	
0.787000	-523.886163	-579.156090	35.472075	10.367919	
0.788000	-523.886164	-579.188418	35.492822	10.370219	
0.789000	-523.886165	-579.221849	35.514278	10.372663	
0.790000	-523.886166	-579.256365	35.536429	10.375249	
0.791000	-523.886167	-579.291949	35.559266	10.377975	
0.792000	-523.886168	-579.328581	35.582776	10.380837	
0.793000	-523.886169	-579.366242	35.606946	10.383831	
0.794000	-523.886171	-579.404912	35.631763	10.386952	
0.795000	-523.886172	-579.444570	35.657215	10.390195	
0.796000	-523.886173	-579.485193	35.683286	10.393554	
0.797000	-523.886174	-579.526761	35.709963	10.397022	
0.798000	-523.886176	-579.569250	35.737232	10.400595	
0.799000	-523.886177	-579.612638	35.765077	10.404263	
0.800000	-523.886178	-579.656900	35.793484	10.408021	
0.801000	-523.886180	-579.702013	35.822436	10.411860	
0.802000	-523.886181	-579.747953	35.851919	10.415774	
0.803000	-523.886182	-579.794694	35.881917	10.419755	
0.804000	-523.886184	-579.842212	35.912413	10.423795	
0.805000	-523.886185	-579.890482	35.943391	10.427887	
0.806000	-523.886187	-579.939477	35.974836	10.432023	
0.807000	-523.886188	-579.989174	36.006730	10.436197	
0.808000	-523.886190	-580.039545	36.039057	10.440402	
0.809000	-523.886191	-580.090566	36.071801	10.444631	
0.810000	-523.886192	-580.142210	36.104945	10.448879	
0.811000	-523.886194	-580.194453	36.138474	10.453139	
0.812000	-523.886195	-580.247268	36.172369	10.457407	
0.813000	-523.886197	-580.300629	36.206615	10.461678	
0.814000	-523.886198	-580.354512	36.241197	10.465948	
0.815000	-523.886199	-580.408892	36.276096	10.470214	
0.816000	-523.886201	-580.463742	36.311298	10.474471	
0.817000	-523.886202	-580.519040	36.346787	10.478718	
0.818000	-523.886203	-580.574759	36.382546	10.482953	
0.819000	-523.886205	-580.630875	36.418561	10.487175	
0.820000	-523.886206	-580.687366	36.454816	10.491381	
0.821000	-523.886207	-580.744207	36.491296	10.495571	
0.822000	-523.886208	-580.801375	36.527985	10.499744	
0.823000	-523.886209	-580.858848	36.564870	10.503900	
0.824000	-523.886211	-580.916602	36.601936	10.508037	
0.825000	-523.886212	-580.974617	36.639169	10.512155	
0.826000	-523.886213	-581.032870	36.676555	10.516251	
0.827000	-523.886214	-581.091339	36.714080	10.520325	
0.828000	-523.886215	-581.150006	36.751731	10.524374	
0.829000	-523.886216	-581.208848	36.789495	10.528394	
0.830000	-523.886217	-581.267847	36.827360	10.532385	
0.831000	-523.886217	-581.326982	36.865312	10.536341	
0.832000	-523.886218	-581.386235	36.903340	10.540260	
0.833000	-523.886219	-581.445587	36.941432	10.544139	
0.834000	-523.886220	-581.505020	36.979575	10.547976	
0.835000	-523.886221	-581.564517	37.017759	10.551766	
0.836000	-523.886222	-581.624058	37.055972	10.555509	
0.837000	-523.886222	-581.683628	37.094204	10.559201	
0.838000	-523.886223	-581.743210	37.132443	10.562843	
0.839000	-523.886224	-581.802788	37.170679	10.566433	
0.840000	-523.886224	-581.862344	37.208902	10.569970	
0.841000	-523.886225	-581.921864	37.247101	10.573455	
0.842000	-523.886226	-581.981332	37.285267	10.576888	
0.843000	-523.886226	-582.040732	37.323389	10.580271	
0.844000	-523.886227	-582.100049	37.361459	10.583604	
0.845000	-523.886227	-582.159269	37.399465	10.586891	
0.846000	-523.886228	-582.218376	37.437400	10.590134	
0.847000	-523.886229	-582.277356	37.475252	10.593334	
0.848000	-523.886229	-582.336194	37.513014	10.596497	
0.849000	-523.886230	-582.394876	37.550675	10.599624	
0.850000	-523.886230	-582.453387	37.588227	10.602720	
0.851000	-523.886231	-582.511712	37.625660	10.605788	
0.852000	-523.886231	-582.569838	37.662964	10.608834	
0.853000	-523.886232	-582.627749	37.700131	10.611861	
0.854000	-523.886232	-582.685431	37.737151	10.614874	
0.855000	-523.886233	-582.742870	37.774015	10.617877	
0.856000	-523.886234	-582.800050	37.810713	10.620875	
0.857000	-523.886234	-582.856957	37.847235	10.623872	
0.858000	-523.886235	-582.913576	37.883572	10.626873	
0.859000	-523.886235	-582.969890	37.919714	10.629880	
0.860000	-523.886236	-583.025886	37.955652	10.632898	
0.861000	-523.886237	-583.081548	37.991375	10.635930	
0.862000	-523.886237	-583.136859	38.026873	10.638978	
0.863000	-523.886238	-583.191804	38.062136	10.642044	
0.864000	-523.886239	-583.246365	38.097153	10.645129	
0.865000	-523.886239	-583.300528	38.131914	10.648234	
0.866000	-523.886240	-583.354275	38.166408	10.651358	
0.867000	-523.886241	-583.407589	38.200624	10.654499	
0.868000	-523.886242	-583.460452	38.234552	10.657657	
0.869000	-523.886243	-583.512848	38.268179	10.660829	
0.870000	-523.886243	-583.564759	38.301494	10.664011	
0.871000	-523.886244	-583.616166	38.334486	10.667199	
0.872000	-523.886245	-583.667051	38.367144	10.670390	
0.873000	-523.886246	-583.717397	38.399455	10.673577	
0.874000	-523.886247	-583.767183	38.431407	10.676758	
0.875000	-523.886248	-583.816392	38.462989	10.679925	
0.876000	-523.886249	-583.865004	38.494187	10.683074	
0.877000	-523.886249	-583.913000	38.524990	10.686200	
0.878000	-523.886250	-583.960360	38.555385	10.689296	
0.879000	-523.886251	-584.007065	38.585360	10.692359	
0.880000	-523.886252	-584.053095	38.614901	10.695383	
0.881000	-523.886253	-584.098431	38.643997	10.698363	
0.882000	-523.886254	-584.143052	38.672634	10.701295	
0.883000	-523.886255	-584.186938	38.700799	10.704175	
0.884000	-523.886256	-584.230069	38.728480	10.706998	
0.885000	-523.886257	-584.272425	38.755663	10.709761	
0.886000	-523.886258	-584.313986	38.782336	10.712460	
0.887000	-523.886259	-584.354732	38.808486	10.715094	
0.888000	-523.886260	-584.394643	38.834100	10.717658	
0.889000	-523.886261	-584.433698	38.859165	10.720151	
0.890000	-523.886262	-584.471878	38.883668	10.722571	
0.891000	-523.886263	-584.509163	38.907597	10.724914	
0.892000	-523.886264	-584.545533	38.930938	10.727181	
0.893000	-523.886265	-584.580968	38.953680	10.729368	
0.894000	-523.886266	-584.615450	38.975810	10.731475	
0.895000	-523.886267	-584.648959	38.997316	10.733501	
0.896000	-523.886268	-584.681476	39.018184	10.735444	
0.897000	-523.886269	-584.712983	39.038405	10.737303	
0.898000	-523.886270	-584.743461	39.057964	10.739077	
0.899000	-523.886271	-584.772891	39.076852	10.740764	
0.900000	-523.886271	-584.801257	39.095057	10.742364	
0.901000	-523.886272	-584.828539	39.112566	10.743876	
0.902000	-523.886273	-584.854723	39.129370	10.745298	
0.903000	-523.886274	-584.879789	39.145457	10.746628	
0.904000	-523.886275	-584.903723	39.160817	10.747867	
0.905000	-523.886276	-584.926508	39.175440	10.749012	
0.906000	-523.886276	-584.948128	39.189315	10.750062	
0.907000	-523.886277	-584.968569	39.202433	10.751016	
0.908000	-523.886278	-584.987814	39.214785	10.751873	
0.909000	-523.886278	-585.005852	39.226361	10.752631	
0.910000	-523.886279	-585.022666	39.237152	10.753290	
0.911000	-523.886280	-585.038244	39.247149	10.753848	
0.912000	-523.886280	-585.052574	39.256346	10.754305	
0.913000	-523.886281	-585.065642	39.264732	10.754658	
0.914000	-523.886281	-585.077437	39.272302	10.754909	
0.915000	-523.886282	-585.087948	39.279047	10.755054	
0.916000	-523.886282	-585.097163	39.284961	10.755094	
0.917000	-523.886283	-585.105073	39.290038	10.755029	
0.918000	-523.886283	-585.111667	39.294270	10.754856	
0.919000	-523.886284	-585.116937	39.297651	10.754576	
0.920000	-523.886284	-585.120873	39.300177	10.754189	
0.921000	-523.886284	-585.123468	39.301843	10.753692	
0.922000	-523.886285	-585.124713	39.302642	10.753087	
0.923000	-523.886285	-585.124603	39.302571	10.752372	
0.924000	-523.886285	-585.123130	39.301625	10.751546	
0.925000	-523.886285	-585.120288	39.299801	10.750610	
0.926000	-523.886285	-585.116073	39.297096	10.749564	
0.927000	-523.886286	-585.110478	39.293505	10.748406	
0.928000	-523.886286	-585.103501	39.289027	10.747136	
0.929000	-523.886286	-585.095136	39.283659	10.745754	
0.930000	-523.886286	-585.085382	39.277398	10.744259	
0.931000	-523.886286	-585.074235	39.270244	10.742652	
0.932000	-523.886286	-585.061693	39.262195	10.740931	
0.933000	-523.886286	-585.047755	39.253249	10.739097	
0.934000	-523.886286	-585.032420	39.243407	10.737150	
0.935000	-523.886286	-585.015687	39.232669	10.735088	
0.936000	-523.886286	-584.997557	39.221033	10.732912	
0.937000	-523.886285	-584.978030	39.208500	10.730622	
0.938000	-523.886285	-584.957108	39.195073	10.728217	
0.939000	-523.886285	-584.934791	39.180750	10.725697	
0.940000	-523.886285	-584.911083	39.165534	10.723062	
0.941000	-523.886284	-584.885986	39.149428	10.720312	
0.942000	-523.886284	-584.859504	39.132432	10.717447	
0.943000	-523.886284	-584.831641	39.114549	10.714466	
0.944000	-523.886283	-584.802400	39.095783	10.711369	
0.945000	-523.886283	-584.771788	39.076136	10.708157	
0.946000	-523.886283	-584.739809	39.055612	10.704830	
0.947000	-523.886282	-584.706469	39.034215	10.701387	
0.948000	-523.886282	-584.671775	39.011949	10.697828	
0.949000	-523.886281	-584.635734	38.988819	10.694154	
0.950000	-523.886281	-584.598354	38.964828	10.690365	
0.951000	-523.886280	-584.559642	38.939984	10.686461	
0.952000	-523.886279	-584.519608	38.914290	10.682443	
0.953000	-523.886279	-584.478260	38.887754	10.678310	
0.954000	-523.886278	-584.435608	38.860380	10.674063	
0.955000	-523.886278	-584.391663	38.832177	10.669703	
0.956000	-523.886277	-584.346434	38.803150	10.665230	
0.957000	-523.886276	-584.299934	38.773306	10.660645	
0.958000	-523.886275	-584.252173	38.742654	10.655948	
0.959000	-523.886275	-584.203165	38.711201	10.651140	
0.960000	-523.886274	-584.152921	38.678956	10.646223	
0.961000	-523.886273	-584.101456	38.645926	10.641197	
0.962000	-523.886272	-584.048782	38.612121	10.636062	
0.963000	-523.886271	-583.994915	38.577549	10.630822	
0.964000	-523.886270	-583.939869	38.542222	10.625475	
0.965000	-523.886269	-583.883659	38.506147	10.620025	
0.966000	-523.886268	-583.826302	38.469336	10.614472	
0.967000	-523.886267	-583.767814	38.431799	10.608817	
0.968000	-523.886266	-583.708211	38.393546	10.603063	
0.969000	-523.886265	-583.647511	38.354590	10.597212	
0.970000	-523.886264	-583.585732	38.314942	10.591264	
0.971000	-523.886263	-583.522893	38.274612	10.585222	
0.972000	-523.886262	-583.459013	38.233615	10.579088	
0.973000	-523.886261	-583.394111	38.191962	10.572864	
0.974000	-523.886259	-583.328207	38.149666	10.566553	
0.975000	-523.886258	-583.261323	38.106740	10.560157	
0.976000	-523.886257	-583.193478	38.063199	10.553680	
0.977000	-523.886255	-583.124696	38.019055	10.547125	
0.978000	-523.886254	-583.054998	37.974324	10.540497	
0.979000	-523.886253	-582.984406	37.929020	10.533802	
0.980000	-523.886251	-582.912945	37.883157	10.527050	
0.981000	-523.886250	-582.840639	37.836752	10.520253	
0.982000	-523.886248	-582.767511	37.789819	10.513432	
0.983000	-523.886247	-582.693586	37.742376	10.506617	
0.984000	-523.886245	-582.618891	37.694437	10.499847	
0.985000	-523.886244	-582.543450	37.646021	10.493152	
0.986000	-523.886242	-582.467292	37.597144	10.486534	
0.987000	-523.886241	-582.390442	37.547823	10.479965	
0.988000	-523.886239	-582.312928	37.498076	10.473410	
0.989000	-523.886237	-582.234779	37.447921	10.466844	
0.990000	-523.886235	-582.156023	37.397377	10.460251	
0.991000	-523.886234	-582.076690	37.346462	10.453624	
0.992000	-523.886232	-581.996809	37.295196	10.446959	
0.993000	-523.886230	-581.916410	37.243597	10.440256	
0.994000	-523.886228	-581.835524	37.191686	10.433514	
0.995000	-523.886226	-581.754182	37.139482	10.426738	
0.996000	-523.886225	-581.672416	37.087006	10.419931	
0.997000	-523.886223	-581.590258	37.034279	10.413097	
0.998000	-523.886221	-581.507741	36.981321	10.406240	
0.999000	-523.886219	-581.424898	36.928154	10.399366	
1.000000	-523.886217	-581.341762	36.874799	10.392480	
1.001000	-523.886215	-581.258368	36.821278	10.385589	
1.002000	-523.886213	-581.174749	36.767613	10.378697	
1.003000	-523.886210	-581.090941	36.713827	10.371809	
1.004000	-523.886208	-581.006979	36.659941	10.364930	
1.005000	-523.886206	-580.922898	36.605980	10.358063	
1.006000	-523.886204	-580.838735	36.551965	10.351213	
1.007000	-523.886202	-580.754525	36.497921	10.344380	
1.008000	-523.886200	-580.670305	36.443870	10.337566	
1.009000	-523.886197	-580.586112	36.389837	10.330773	
1.010000	-523.886195	-580.501983	36.335845	10.324000	
1.011000	-523.886193	-580.417956	36.281918	10.317247	
1.012000	-523.886191	-580.334068	36.228080	10.310514	
1.013000	-523.886188	-580.250357	36.174356	10.303802	
1.014000	-523.886186	-580.166861	36.120770	10.297109	
1.015000	-523.886184	-580.083618	36.067346	10.290435	
1.016000	-523.886182	-580.000666	36.014110	10.283781	
1.017000	-523.886179	-579.918045	35.961085	10.277146	
1.018000	-523.886177	-579.835791	35.908296	10.270532	
1.019000	-523.886175	-579.753944	35.855769	10.263939	
1.020000	-523.886172	-579.672542	35.803527	10.257367	
1.021000	-523.886170	-579.591624	35.751595	10.250819	
1.022000	-523.886168	-579.511226	35.699998	10.244296	
1.023000	-523.886166	-579.431389	35.648760	10.237800	
1.024000	-523.886163	-579.352150	35.597906	10.231331	
1.025000	-523.886161	-579.273546	35.547459	10.224893	
1.026000	-523.886159	-579.195616	35.497445	10.218487	
1.027000	-523.886157	-579.118396	35.447887	10.212116	
1.028000	-523.886154	-579.041923	35.398809	10.205780	
1.029000	-523.886152	-578.966235	35.350234	10.199484	
1.030000	-523.886150	-578.891368	35.302185	10.193228	
1.031000	-523.886148	-578.817357	35.254687	10.187016	
1.032000	-523.886146	-578.744237	35.207760	10.180849	
1.033000	-523.886144	-578.672045	35.161428	10.174729	
1.034000	-523.886142	-578.600813	35.115713	10.168659	
1.035000	-523.886140	-578.530576	35.070637	10.162641	
1.036000	-523.886138	-578.461366	35.026220	10.156676	
1.037000	-523.886136	-578.393217	34.982483	10.150766	
1.038000	-523.886134	-578.326160	34.939447	10.144913	
1.039000	-523.886132	-578.260225	34.897131	10.139119	
1.040000	-523.886131	-578.195443	34.855556	10.133385	
1.041000	-523.886129	-578.131844	34.814739	10.127713	
1.042000	-523.886127	-578.069455	34.774699	10.122104	
1.043000	-523.886126	-578.008304	34.735453	10.116558	
1.044000	-523.886124	-577.948418	34.697020	10.111078	
1.045000	-523.886123	-577.889822	34.659414	10.105663	
1.046000	-523.886122	-577.832541	34.622652	10.100315	
1.047000	-523.886120	-577.776599	34.586749	10.095034	
1.048000	-523.886119	-577.722017	34.551719	10.089822	
1.049000	-523.886118	-577.668817	34.517577	10.084678	
1.050000	-523.886117	-577.617019	34.484334	10.079603	
1.051000	-523.886116	-577.566643	34.452003	10.074598	
1.052000	-523.886115	-577.517706	34.420596	10.069663	
1.053000	-523.886114	-577.470224	34.390123	10.064798	
1.054000	-523.886113	-577.424213	34.360594	10.060004	
1.055000	-523.886113	-577.379687	34.332018	10.055281	
1.056000	-523.886112	-577.336659	34.304403	10.050630	
1.057000	-523.886111	-577.295141	34.277756	10.046052	
1.058000	-523.886111	-577.255141	34.252085	10.041547	
1.059000	-523.886111	-577.216670	34.227395	10.037115	
1.060000	-523.886110	-577.179735	34.203690	10.032758	
1.061000	-523.886110	-577.144342	34.180975	10.028477	
1.062000	-523.886110	-577.110496	34.159253	10.024273	
1.063000	-523.886110	-577.078200	34.138525	10.020147	
1.064000	-523.886110	-577.047456	34.118794	10.016101	
1.065000	-523.886110	-577.018265	34.100059	10.012137	
1.066000	-523.886110	-576.990627	34.082321	10.008256	
1.067000	-523.886111	-576.964539	34.065578	10.004460	
1.068000	-523.886111	-576.939999	34.049828	10.000753	
1.069000	-523.886112	-576.917001	34.035067	9.997137	
1.070000	-523.886112	-576.895539	34.021293	9.993614	
1.071000	-523.886113	-576.875607	34.008500	9.990190	
1.072000	-523.886114	-576.857196	33.996683	9.986867	
1.073000	-523.886114	-576.840295	33.985836	9.983650	
1.074000	-523.886115	-576.824893	33.975951	9.980544	
1.075000	-523.886116	-576.810979	33.967020	9.977556	
1.076000	-523.886117	-576.798539	33.959035	9.974693	
1.077000	-523.886118	-576.787557	33.951986	9.971961	
1.078000	-523.886120	-576.778017	33.945863	9.969371	
1.079000	-523.886121	-576.769903	33.940655	9.966931	
1.080000	-523.886122	-576.763197	33.936349	9.964653	
1.081000	-523.886124	-576.757878	33.932935	9.962550	
1.082000	-523.886125	-576.753926	33.930398	9.960632	
1.083000	-523.886127	-576.751321	33.928725	9.958912	
1.084000	-523.886128	-576.750038	33.927901	9.957402	
1.085000	-523.886130	-576.750056	33.927911	9.956110	
1.086000	-523.886132	-576.751349	33.928740	9.955043	
1.087000	-523.886133	-576.753892	33.930371	9.954204	
1.088000	-523.886135	-576.757660	33.932788	9.953594	
1.089000	-523.886137	-576.762625	33.935973	9.953210	
1.090000	-523.886139	-576.768759	33.939909	9.953045	
1.091000	-523.886141	-576.776035	33.944577	9.953094	
1.092000	-523.886143	-576.784422	33.949959	9.953349	
1.093000	-523.886145	-576.793893	33.956036	9.953804	
1.094000	-523.886147	-576.804415	33.962787	9.954453	
1.095000	-523.886149	-576.815958	33.970194	9.955293	
1.096000	-523.886151	-576.828491	33.978237	9.956320	
1.097000	-523.886153	-576.841982	33.986894	9.957533	
1.098000	-523.886155	-576.856398	33.996145	9.958931	
1.099000	-523.886157	-576.871707	34.005969	9.960513	
1.100000	-523.886159	-576.887877	34.016345	9.962280	
1.101000	-523.886162	-576.904873	34.027251	9.964232	
1.102000	-523.886164	-576.922662	34.038667	9.966369	
1.103000	-523.886166	-576.941211	34.050570	9.968691	
1.104000	-523.886168	-576.960485	34.062939	9.971200	
1.105000	-523.886170	-576.980451	34.075752	9.973894	
1.106000	-523.886173	-577.001075	34.088987	9.976775	
1.107000	-523.886175	-577.022323	34.102622	9.979841	
1.108000	-523.886177	-577.044161	34.116636	9.983090	
1.109000	-523.886179	-577.066554	34.131007	9.986521	
1.110000	-523.886181	-577.089471	34.145713	9.990128	
1.111000	-523.886183	-577.112876	34.160733	9.993905	
1.112000	-523.886185	-577.136736	34.176046	9.997844	
1.113000	-523.886188	-577.161020	34.191629	10.001934	
1.114000	-523.886190	-577.185693	34.207463	10.006163	
1.115000	-523.886192	-577.210724	34.223527	10.010515	
1.116000	-523.886194	-577.236081	34.239800	10.014975	
1.117000	-523.886196	-577.261732	34.256261	10.019524	
1.118000	-523.886197	-577.287647	34.272892	10.024146	
1.119000	-523.886199	-577.313794	34.289672	10.028821	
1.120000	-523.886201	-577.340145	34.306582	10.033532	
1.121000	-523.886203	-577.366669	34.323604	10.038262	
1.122000	-523.886205	-577.393339	34.340720	10.042992	
1.123000	-523.886206	-577.420126	34.357910	10.047705	
1.124000	-523.886208	-577.447003	34.375159	10.052385	
1.125000	-523.886210	-577.473943	34.392448	10.057015	
1.126000	-523.886211	-577.500922	34.409762	10.061581	
1.127000	-523.886213	-577.527914	34.427085	10.066068	
1.128000	-523.886214	-577.554895	34.444400	10.070463	
1.129000	-523.886216	-577.581843	34.461694	10.074754	
1.130000	-523.886217	-577.608734	34.478952	10.078930	
1.131000	-523.886218	-577.635549	34.496161	10.082981	
1.132000	-523.886219	-577.662266	34.513307	10.086899	
1.133000	-523.886220	-577.688866	34.530379	10.090677	
1.134000	-523.886221	-577.715332	34.547363	10.094307	
1.135000	-523.886222	-577.741646	34.564251	10.097783	
1.136000	-523.886223	-577.767791	34.581030	10.101102	
1.137000	-523.886224	-577.793753	34.597692	10.104259	
1.138000	-523.886225	-577.819518	34.614228	10.107250	
1.139000	-523.886225	-577.845073	34.630628	10.110073	
1.140000	-523.886226	-577.870407	34.646887	10.112725	
1.141000	-523.886226	-577.895507	34.662996	10.115206	
1.142000	-523.886227	-577.920366	34.678950	10.117513	
1.143000	-523.886227	-577.944975	34.694744	10.119646	
1.144000	-523.886228	-577.969326	34.710372	10.121605	
1.145000	-523.886228	-577.993414	34.725831	10.123391	
1.146000	-523.886228	-578.017233	34.741119	10.125003	
1.147000	-523.886228	-578.040780	34.756231	10.126444	
1.148000	-523.886228	-578.064053	34.771167	10.127714	
1.149000	-523.886228	-578.087049	34.785926	10.128815	
1.150000	-523.886228	-578.109770	34.800508	10.129750	
1.151000	-523.886227	-578.132214	34.814913	10.130522	
1.152000	-523.886227	-578.154385	34.829143	10.131133	
1.153000	-523.886227	-578.176285	34.843198	10.131586	
1.154000	-523.886226	-578.197919	34.857083	10.131886	
1.155000	-523.886226	-578.219292	34.870800	10.132036	
1.156000	-523.886225	-578.240409	34.884354	10.132041	
1.157000	-523.886224	-578.261280	34.897749	10.131906	
1.158000	-523.886224	-578.281911	34.910991	10.131634	
1.159000	-523.886223	-578.302312	34.924084	10.131232	
1.160000	-523.886222	-578.322494	34.937038	10.130705	
1.161000	-523.886221	-578.342467	34.949857	10.130058	
1.162000	-523.886220	-578.362245	34.962551	10.129298	
1.163000	-523.886219	-578.381839	34.975127	10.128430	
1.164000	-523.886218	-578.401265	34.987595	10.127460	
1.165000	-523.886217	-578.420536	34.999964	10.126396	
1.166000	-523.886215	-578.439669	35.012245	10.125243	
1.167000	-523.886214	-578.458680	35.024447	10.124007	
1.168000	-523.886213	-578.477585	35.036581	10.122696	
1.169000	-523.886211	-578.496404	35.048659	10.121315	
1.170000	-523.886210	-578.515153	35.060694	10.119871	
1.171000	-523.886209	-578.533853	35.072696	10.118371	
1.172000	-523.886207	-578.552522	35.084679	10.116821	
1.173000	-523.886206	-578.571182	35.096655	10.115228	
1.174000	-523.886204	-578.589852	35.108639	10.113597	
1.175000	-523.886203	-578.608554	35.120642	10.111936	
1.176000	-523.886201	-578.627309	35.132681	10.110251	
1.177000	-523.886199	-578.646140	35.144767	10.108549	
1.178000	-523.886198	-578.665068	35.156916	10.106836	
1.179000	-523.886196	-578.684117	35.169143	10.105118	
1.180000	-523.886194	-578.703309	35.181461	10.103404	
1.181000	-523.886193	-578.722667	35.193886	10.101701	
1.182000	-523.886191	-578.742214	35.206433	10.100016	
1.183000	-523.886189	-578.761974	35.219116	10.098358	
1.184000	-523.886188	-578.781970	35.231950	10.096736	
1.185000	-523.886186	-578.802226	35.244952	10.095159	
1.186000	-523.886184	-578.822765	35.258135	10.093638	
1.187000	-523.886183	-578.843611	35.271514	10.092184	
1.188000	-523.886181	-578.864787	35.285106	10.090811	
1.189000	-523.886179	-578.886316	35.298925	10.089533	
1.190000	-523.886178	-578.908222	35.312985	10.088368	
1.191000	-523.886176	-578.930527	35.327301	10.087335	
1.192000	-523.886174	-578.953254	35.341888	10.086457	
1.193000	-523.886173	-578.976426	35.356761	10.085760	
1.194000	-523.886171	-579.000065	35.371933	10.085270	
1.195000	-523.886170	-579.024192	35.387419	10.085015	
1.196000	-523.886168	-579.048830	35.403232	10.085019	
1.197000	-523.886167	-579.073998	35.419386	10.085294	
1.198000	-523.886165	-579.099718	35.435895	10.085846	
1.199000	-523.886164	-579.126011	35.452770	10.086663	
1.200000	-523.886162	-579.152894	35.470025	10.087726	
1.201000	-523.886161	-579.180389	35.487671	10.089010	
1.202000	-523.886160	-579.208513	35.505722	10.090488	
1.203000	-523.886158	-579.237285	35.524189	10.092136	
1.204000	-523.886157	-579.266721	35.543082	10.093932	
1.205000	-523.886156	-579.296839	35.562412	10.095859	
1.206000	-523.886155	-579.327655	35.582191	10.097901	
1.207000	-523.886153	-579.359185	35.602427	10.100048	
1.208000	-523.886152	-579.391443	35.623131	10.102289	
1.209000	-523.886151	-579.424443	35.644311	10.104619	
1.210000	-523.886150	-579.458199	35.665976	10.107031	
1.211000	-523.886149	-579.492723	35.688134	10.109522	
1.212000	-523.886148	-579.528028	35.710793	10.112087	
1.213000	-523.886148	-579.564124	35.733960	10.114726	
1.214000	-523.886147	-579.601021	35.757641	10.117437	
1.215000	-523.886146	-579.638730	35.781843	10.120218	
1.216000	-523.886145	-579.677259	35.806571	10.123069	
1.217000	-523.886145	-579.716615	35.831830	10.125991	
1.218000	-523.886144	-579.756806	35.857625	10.128983	
1.219000	-523.886144	-579.797838	35.883959	10.132046	
1.220000	-523.886143	-579.839715	35.910837	10.135181	
1.221000	-523.886143	-579.882444	35.938260	10.138389	
1.222000	-523.886142	-579.926026	35.966231	10.141671	
1.223000	-523.886142	-579.970465	35.994752	10.145027	
1.224000	-523.886142	-580.015762	36.023824	10.148459	
1.225000	-523.886142	-580.061918	36.053447	10.151968	
1.226000	-523.886142	-580.108933	36.083621	10.155555	
1.227000	-523.886142	-580.156807	36.114346	10.159220	
1.228000	-523.886142	-580.205536	36.145620	10.162964	
1.229000	-523.886142	-580.255118	36.177442	10.166789	
1.230000	-523.886142	-580.305550	36.209809	10.170694	
1.231000	-523.886142	-580.356826	36.242718	10.174681	
1.232000	-523.886142	-580.408941	36.276165	10.178751	
1.233000	-523.886142	-580.461889	36.310146	10.182905	
1.234000	-523.886143	-580.515661	36.344657	10.187143	
1.235000	-523.886143	-580.570249	36.379691	10.191469	
1.236000	-523.886144	-580.625644	36.415243	10.195885	
1.237000	-523.886144	-580.681836	36.451306	10.200392	
1.238000	-523.886145	-580.738813	36.487873	10.204995	
1.239000	-523.886145	-580.796562	36.524936	10.209697	
1.240000	-523.886146	-580.855071	36.562487	10.214501	
1.241000	-523.886147	-580.914325	36.600515	10.219411	
1.242000	-523.886148	-580.974309	36.639012	10.224429	
1.243000	-523.886149	-581.035007	36.677968	10.229557	
1.244000	-523.886150	-581.096403	36.717371	10.234794	
1.245000	-523.886151	-581.158477	36.757209	10.240138	
1.246000	-523.886152	-581.221212	36.797472	10.245585	
1.247000	-523.886153	-581.284587	36.838145	10.251130	
1.248000	-523.886154	-581.348583	36.879216	10.256765	
1.249000	-523.886155	-581.413176	36.920671	10.262484	
1.250000	-523.886157	-581.478345	36.962495	10.268280	
1.251000	-523.886158	-581.544066	37.004674	10.274145	
1.252000	-523.886159	-581.610314	37.047191	10.280075	
1.253000	-523.886161	-581.677066	37.090031	10.286065	
1.254000	-523.886162	-581.744293	37.133177	10.292112	
1.255000	-523.886164	-581.811970	37.176611	10.298213	
1.256000	-523.886166	-581.880069	37.220315	10.304369	
1.257000	-523.886167	-581.948561	37.264272	10.310582	
1.258000	-523.886169	-582.017415	37.308461	10.316856	
1.259000	-523.886171	-582.086603	37.352864	10.323196	
1.260000	-523.886173	-582.156092	37.397461	10.329612	
1.261000	-523.886175	-582.225851	37.442231	10.336113	
1.262000	-523.886177	-582.295847	37.487153	10.342714	
1.263000	-523.886179	-582.366047	37.532206	10.349430	
1.264000	-523.886181	-582.436415	37.577367	10.356274	
1.265000	-523.886183	-582.506918	37.622614	10.363260	
1.266000	-523.886185	-582.577519	37.667924	10.370397	
1.267000	-523.886187	-582.648182	37.713274	10.377685	
1.268000	-523.886190	-582.718870	37.758639	10.385121	
1.269000	-523.886192	-582.789544	37.803997	10.392693	
1.270000	-523.886194	-582.860168	37.849321	10.400383	
1.271000	-523.886197	-582.930701	37.894587	10.408173	
1.272000	-523.886199	-583.001104	37.939770	10.416041	
1.273000	-523.886202	-583.071336	37.984844	10.423967	
1.274000	-523.886204	-583.141358	38.029782	10.431933	
1.275000	-523.886207	-583.211128	38.074559	10.439921	
1.276000	-523.886209	-583.280605	38.119147	10.447915	
1.277000	-523.886212	-583.349745	38.163519	10.455902	
1.278000	-523.886214	-583.418507	38.207649	10.463869	
1.279000	-523.886217	-583.486848	38.251508	10.471804	
1.280000	-523.886220	-583.554725	38.295069	10.479697	
1.281000	-523.886222	-583.622093	38.338304	10.487539	
1.282000	-523.886225	-583.688909	38.381185	10.495322	
1.283000	-523.886228	-583.755129	38.423683	10.503036	
1.284000	-523.886231	-583.820708	38.465770	10.510675	
1.285000	-523.886233	-583.885602	38.507417	10.518232	
1.286000	-523.886236	-583.949767	38.548596	10.525698	
1.287000	-523.886239	-584.013156	38.589277	10.533068	
1.288000	-523.886242	-584.075726	38.629432	10.540334	
1.289000	-523.886245	-584.137431	38.669033	10.547490	
1.290000	-523.886247	-584.198227	38.708049	10.554530	
1.291000	-523.886250	-584.258067	38.746453	10.561448	
1.292000	-523.886253	-584.316909	38.784215	10.568237	
1.293000	-523.886256	-584.374706	38.821307	10.574892	
1.294000	-523.886259	-584.431414	38.857701	10.581406	
1.295000	-523.886261	-584.486988	38.893366	10.587775	
1.296000	-523.886264	-584.541385	38.928276	10.593993	
1.297000	-523.886267	-584.594560	38.962402	10.600054	
1.298000	-523.886270	-584.646470	38.995716	10.605954	
1.299000	-523.886273	-584.697072	39.028190	10.611687	
1.300000	-523.886275	-584.746321	39.059797	10.617249	
1.301000	-523.886278	-584.794177	39.090509	10.622636	
1.302000	-523.886281	-584.840596	39.120299	10.627842	
1.303000	-523.886283	-584.885537	39.149140	10.632866	
1.304000	-523.886286	-584.928960	39.177007	10.637701	
1.305000	-523.886288	-584.970823	39.203873	10.642346	
1.306000	-523.886291	-585.011087	39.229713	10.646796	
1.307000	-523.886293	-585.049713	39.254501	10.651048	
1.308000	-523.886296	-585.086661	39.278213	10.655100	
1.309000	-523.886298	-585.121895	39.300824	10.658948	
1.310000	-523.886301	-585.155377	39.322311	10.662591	
1.311000	-523.886303	-585.187071	39.342651	10.666025	
1.312000	-523.886305	-585.216942	39.361820	10.669248	
1.313000	-523.886307	-585.244954	39.379797	10.672259	
1.314000	-523.886310	-585.271075	39.396560	10.675055	
1.315000	-523.886312	-585.295272	39.412088	10.677636	
1.316000	-523.886314	-585.317513	39.426361	10.679998	
1.317000	-523.886316	-585.337766	39.439359	10.682140	
1.318000	-523.886318	-585.356004	39.451062	10.684062	
1.319000	-523.886320	-585.372196	39.461453	10.685762	
1.320000	-523.886321	-585.386316	39.470514	10.687239	
1.321000	-523.886323	-585.398337	39.478228	10.688491	
1.322000	-523.886325	-585.408233	39.484578	10.689518	
1.323000	-523.886326	-585.415982	39.489550	10.690318	
1.324000	-523.886328	-585.421559	39.493129	10.690892	
1.325000	-523.886329	-585.424944	39.495300	10.691238	
1.326000	-523.886331	-585.426115	39.496051	10.691356	
1.327000	-523.886332	-585.425055	39.495370	10.691245	
1.328000	-523.886333	-585.421745	39.493244	10.690906	
1.329000	-523.886334	-585.416168	39.489665	10.690338	
1.330000	-523.886335	-585.408311	39.484621	10.689540	
1.331000	-523.886336	-585.398159	39.478105	10.688513	
1.332000	-523.886337	-585.385700	39.470108	10.687258	
1.333000	-523.886338	-585.370923	39.460624	10.685774	
1.334000	-523.886339	-585.353819	39.449646	10.684062	
1.335000	-523.886339	-585.334380	39.437170	10.682122	
1.336000	-523.886340	-585.312599	39.423191	10.679956	
1.337000	-523.886340	-585.288472	39.407706	10.677565	
1.338000	-523.886341	-585.261995	39.390713	10.674948	
1.339000	-523.886341	-585.233167	39.372211	10.672109	
1.340000	-523.886341	-585.201987	39.352199	10.669048	
1.341000	-523.886341	-585.168455	39.330679	10.665767	
1.342000	-523.886341	-585.132576	39.307652	10.662268	
1.343000	-523.886341	-585.094353	39.283120	10.658552	
1.344000	-523.886341	-585.053793	39.257089	10.654623	
1.345000	-523.886341	-585.010902	39.229562	10.650482	
1.346000	-523.886340	-584.965690	39.200545	10.646131	
1.347000	-523.886340	-584.918167	39.170046	10.641575	
1.348000	-523.886339	-584.868347	39.138072	10.636815	
1.349000	-523.886339	-584.816243	39.104632	10.631856	
1.350000	-523.886338	-584.761870	39.069736	10.626700	
1.351000	-523.886337	-584.705246	39.033395	10.621352	
1.352000	-523.886336	-584.646390	38.995622	10.615814	
1.353000	-523.886335	-584.585321	38.956429	10.610092	
1.354000	-523.886334	-584.522064	38.915831	10.604191	
1.355000	-523.886332	-584.456640	38.873843	10.598113	
1.356000	-523.886331	-584.389075	38.830482	10.591866	
1.357000	-523.886330	-584.319397	38.785763	10.585454	
1.358000	-523.886328	-584.247634	38.739707	10.578883	
1.359000	-523.886326	-584.173817	38.692332	10.572159	
1.360000	-523.886325	-584.097976	38.643659	10.565288	
1.361000	-523.886323	-584.020147	38.593710	10.558278	
1.362000	-523.886321	-583.940363	38.542506	10.551135	
1.363000	-523.886319	-583.858661	38.490072	10.543866	
1.364000	-523.886316	-583.775081	38.436431	10.536481	
1.365000	-523.886314	-583.689661	38.381610	10.528987	
1.366000	-523.886312	-583.602443	38.325636	10.521393	
1.367000	-523.886309	-583.513471	38.268535	10.513709	
1.368000	-523.886307	-583.422788	38.210337	10.505944	
1.369000	-523.886304	-583.330440	38.151070	10.498109	
1.370000	-523.886302	-583.236476	38.090766	10.490215	
1.371000	-523.886299	-583.140944	38.029455	10.482273	
1.372000	-523.886296	-583.043894	37.967171	10.474294	
1.373000	-523.886293	-582.945379	37.903947	10.466291	
1.374000	-523.886290	-582.845453	37.839816	10.458276	
1.375000	-523.886287	-582.744169	37.774814	10.450261	
1.376000	-523.886283	-582.641584	37.708978	10.442258	
1.377000	-523.886280	-582.537756	37.642343	10.434280	
1.378000	-523.886277	-582.432744	37.574949	10.426336	
1.379000	-523.886273	-582.326607	37.506833	10.418439	
1.380000	-523.886270	-582.219407	37.438034	10.410596	
1.381000	-523.886266	-582.111207	37.368595	10.402816	
1.382000	-523.886262	-582.002071	37.298554	10.395106	
1.383000	-523.886258	-581.892064	37.227954	10.387472	
1.384000	-523.886254	-581.781253	37.156838	10.379917	
1.385000	-523.886251	-581.669704	37.085249	10.372446	
1.386000	-523.886247	-581.557486	37.013231	10.365060	
1.387000	-523.886242	-581.444670	36.940828	10.357761	
1.388000	-523.886238	-581.331324	36.868085	10.350550	
1.389000	-523.886234	-581.217521	36.795050	10.343428	
1.390000	-523.886230	-581.103333	36.721767	10.336395	
1.391000	-523.886226	-580.988834	36.648285	10.329453	
1.392000	-523.886221	-580.874097	36.574650	10.322599	
1.393000	-523.886217	-580.759198	36.500910	10.315836	
1.394000	-523.886212	-580.644211	36.427115	10.309163	
1.395000	-523.886208	-580.529214	36.353313	10.302581	
1.396000	-523.886203	-580.414283	36.279554	10.296089	
1.397000	-523.886199	-580.299495	36.205886	10.289689	
1.398000	-523.886194	-580.184929	36.132361	10.283381	
1.399000	-523.886190	-580.070662	36.059028	10.277166	
1.400000	-523.886185	-579.956774	35.985938	10.271045	
1.401000	-523.886180	-579.843344	35.913142	10.265020	
1.402000	-523.886176	-579.730451	35.840690	10.259090	
1.403000	-523.886171	-579.618175	35.768634	10.253259	
1.404000	-523.886166	-579.506595	35.697026	10.247528	
1.405000	-523.886162	-579.395791	35.625915	10.241898	
1.406000	-523.886157	-579.285842	35.555354	10.236373	
1.407000	-523.886152	-579.176830	35.485393	10.230953	
1.408000	-523.886148	-579.068833	35.416084	10.225642	
1.409000	-523.886143	-578.961930	35.347477	10.220441	
1.410000	-523.886138	-578.856201	35.279623	10.215354	
1.411000	-523.886134	-578.751724	35.212573	10.210382	
1.412000	-523.886129	-578.648578	35.146377	10.205530	
1.413000	-523.886125	-578.546840	35.081085	10.200799	
1.414000	-523.886120	-578.446588	35.016746	10.196193	
1.415000	-523.886116	-578.347898	34.953410	10.191715	
1.416000	-523.886111	-578.250846	34.891125	10.187368	
1.417000	-523.886107	-578.155506	34.829939	10.183155	
1.418000	-523.886102	-578.061954	34.769901	10.179079	
1.419000	-523.886098	-577.970262	34.711056	10.175145	
1.420000	-523.886094	-577.880502	34.653451	10.171355	
1.421000	-523.886090	-577.792745	34.597131	10.167714	
1.422000	-523.886086	-577.707061	34.542142	10.164225	
1.423000	-523.886082	-577.623519	34.488527	10.160893	
1.424000	-523.886078	-577.542185	34.436330	10.157721	
1.425000	-523.886074	-577.463125	34.385592	10.154714	
1.426000	-523.886070	-577.386404	34.336355	10.151876	
1.427000	-523.886067	-577.312085	34.288660	10.149213	
1.428000	-523.886063	-577.240227	34.242544	10.146727	
1.429000	-523.886060	-577.170891	34.198047	10.144425	
1.430000	-523.886057	-577.104135	34.155204	10.142311	
1.431000	-523.886054	-577.040013	34.114053	10.140390	
1.432000	-523.886051	-576.978580	34.074628	10.138667	
1.433000	-523.886048	-576.919887	34.036961	10.137146	
1.434000	-523.886045	-576.863985	34.001084	10.135831	
1.435000	-523.886042	-576.810920	33.967030	10.134728	
1.436000	-523.886040	-576.760740	33.934826	10.133839	
1.437000	-523.886037	-576.713486	33.904500	10.133169	
1.438000	-523.886035	-576.669201	33.876079	10.132720	
1.439000	-523.886033	-576.627923	33.849588	10.132496	
1.440000	-523.886031	-576.589689	33.825051	10.132498	
1.441000	-523.886029	-576.554532	33.802489	10.132728	
1.442000	-523.886028	-576.522486	33.781923	10.133187	
1.443000	-523.886026	-576.493578	33.763371	10.133875	
1.444000	-523.886025	-576.467837	33.746851	10.134793	
1.445000	-523.886024	-576.445286	33.732379	10.135939	
1.446000	-523.886023	-576.425948	33.719968	10.137312	
1.447000	-523.886022	-576.409841	33.709631	10.138911	
1.448000	-523.886021	-576.396983	33.701379	10.140733	
1.449000	-523.886021	-576.387388	33.695222	10.142776	
1.450000	-523.886020	-576.381067	33.691165	10.145037	
1.451000	-523.886020	-576.378031	33.689217	10.147513	
1.452000	-523.886020	-576.378284	33.689379	10.150201	
1.453000	-523.886020	-576.381832	33.691656	10.153097	
1.454000	-523.886020	-576.388675	33.696048	10.156198	
1.455000	-523.886021	-576.398814	33.702555	10.159501	
1.456000	-523.886021	-576.412243	33.711173	10.163003	
1.457000	-523.886022	-576.428956	33.721899	10.166699	
1.458000	-523.886023	-576.448946	33.734728	10.170586	
1.459000	-523.886024	-576.472201	33.749652	10.174662	
1.460000	-523.886025	-576.498706	33.766663	10.178923	
1.461000	-523.886026	-576.528447	33.785750	10.183366	
1.462000	-523.886028	-576.561405	33.806901	10.187987	
1.463000	-523.886029	-576.597558	33.830103	10.192785	
1.464000	-523.886031	-576.636884	33.855341	10.197756	
1.465000	-523.886033	-576.679358	33.882599	10.202898	
1.466000	-523.886035	-576.724951	33.911860	10.208208	
1.467000	-523.886037	-576.773635	33.943103	10.213684	
1.468000	-523.886039	-576.825376	33.976309	10.219324	
1.469000	-523.886042	-576.880141	34.011456	10.225125	
1.470000	-523.886044	-576.937894	34.048520	10.231086	
1.471000	-523.886047	-576.998597	34.087477	10.237205	
1.472000	-523.886049	-577.062210	34.128302	10.243479	
1.473000	-523.886052	-577.128691	34.170967	10.249907	
1.474000	-523.886055	-577.197997	34.215446	10.256488	
1.475000	-523.886058	-577.270081	34.261708	10.263220	
1.476000	-523.886061	-577.344898	34.309723	10.270101	
1.477000	-523.886065	-577.422399	34.359461	10.277131	
1.478000	-523.886068	-577.502533	34.410888	10.284307	
1.479000	-523.886071	-577.585250	34.463973	10.291630	
1.480000	-523.886075	-577.670495	34.518681	10.299097	
1.481000	-523.886078	-577.758214	34.574977	10.306707	
1.482000	-523.886082	-577.848353	34.632825	10.314460	
1.483000	-523.886086	-577.940854	34.692190	10.322355	
1.484000	-523.886089	-578.035658	34.753033	10.330391	
1.485000	-523.886093	-578.132709	34.815317	10.338566	
1.486000	-523.886097	-578.231944	34.879003	10.346881	
1.487000	-523.886101	-578.333304	34.944053	10.355333	
1.488000	-523.886105	-578.436726	35.010427	10.363923	
1.489000	-523.886109	-578.542148	35.078084	10.372648	
1.490000	-523.886113	-578.649507	35.146984	10.381509	
1.491000	-523.886117	-578.758739	35.217086	10.390503	
1.492000	-523.886121	-578.869780	35.288349	10.399629	
1.493000	-523.886125	-578.982564	35.360731	10.408886	
1.494000	-523.886129	-579.097026	35.434190	10.418272	
1.495000	-523.886133	-579.213100	35.508683	10.427785	
1.496000	-523.886137	-579.330721	35.584169	10.437422	
1.497000	-523.886142	-579.449821	35.660605	10.447181	
1.498000	-523.886146	-579.570335	35.737947	10.457060	
1.499000	-523.886150	-579.692195	35.816154	10.467055	
1.500000	-523.886154	-579.815335	35.895183	10.477162	
1.501000	-523.886158	-579.939689	35.974990	10.487377	
1.502000	-523.886162	-580.065189	36.055532	10.497697	
1.503000	-523.886166	-580.191768	36.136768	10.508117	
1.504000	-523.886171	-580.319361	36.218654	10.518631	
1.505000	-523.886175	-580.447901	36.301148	10.529235	
1.506000	-523.886179	-580.577323	36.384208	10.539922	
1.507000	-523.886183	-580.707560	36.467791	10.550687	
1.508000	-523.886187	-580.838547	36.551856	10.561523	
1.509000	-523.886191	-580.970220	36.636360	10.572424	
1.510000	-523.886194	-581.102513	36.721264	10.583383	
1.511000	-523.886198	-581.235364	36.806524	10.594393	
1.512000	-523.886202	-581.368708	36.892102	10.605447	
1.513000	-523.886206	-581.502483	36.977956	10.616539	
1.514000	-523.886210	-581.636627	37.064046	10.627659	
1.515000	-523.886213	-581.771077	37.150334	10.638802	
1.516000	-523.886217	-581.905774	37.236779	10.649961	
1.517000	-523.886221	-582.040656	37.323344	10.661127	
1.518000	-523.886224	-582.175665	37.409990	10.672294	
1.519000	-523.886228	-582.310742	37.496680	10.683455	
1.520000	-523.886231	-582.445828	37.583376	10.694603	
1.521000	-523.886235	-582.580867	37.670041	10.705731	
1.522000	-523.886238	-582.715803	37.756640	10.716834	
1.523000	-523.886241	-582.850580	37.843138	10.727904	
1.524000	-523.886244	-582.985144	37.929498	10.738937	
1.525000	-523.886248	-583.119441	38.015687	10.749926	
1.526000	-523.886251	-583.253418	38.101672	10.760866	
1.527000	-523.886254	-583.387024	38.187418	10.771751	
1.528000	-523.886257	-583.520208	38.272893	10.782579	
1.529000	-523.886260	-583.652920	38.358065	10.793342	
1.530000	-523.886262	-583.785112	38.442904	10.804039	
1.531000	-523.886265	-583.916734	38.527377	10.814665	
1.532000	-523.886268	-584.047742	38.611455	10.825217	
1.533000	-523.886271	-584.178088	38.695109	10.835692	
1.534000	-523.886273	-584.307727	38.778310	10.846088	
1.535000	-523.886276	-584.436617	38.861029	10.856402	
1.536000	-523.886278	-584.564713	38.943239	10.866633	
1.537000	-523.886281	-584.691974	39.024914	10.876779	
1.538000	-523.886283	-584.818360	39.106026	10.886841	
1.539000	-523.886285	-584.943829	39.186550	10.896817	
1.540000	-523.886288	-585.068343	39.266462	10.906708	
1.541000	-523.886290	-585.191865	39.345736	10.916513	
1.542000	-523.886292	-585.314356	39.424350	10.926234	
1.543000	-523.886294	-585.435782	39.502279	10.935872	
1.544000	-523.886296	-585.556108	39.579502	10.945427	
1.545000	-523.886298	-585.675298	39.655997	10.954901	
1.546000	-523.886300	-585.793321	39.731742	10.964293	
1.547000	-523.886301	-585.910143	39.806718	10.973605	
1.548000	-523.886303	-586.025735	39.880903	10.982836	
1.549000	-523.886305	-586.140065	39.954278	10.991986	
1.550000	-523.886307	-586.253105	40.026826	11.001053	
1.551000	-523.886308	-586.364825	40.098527	11.010035	
1.552000	-523.886310	-586.475200	40.169364	11.018929	
1.553000	-523.886311	-586.584201	40.239320	11.027732	
1.554000	-523.886313	-586.691804	40.308378	11.036441	
1.555000	-523.886314	-586.797984	40.376523	11.045050	
1.556000	-523.886315	-586.902716	40.443739	11.053557	
1.557000	-523.886317	-587.005978	40.510012	11.061955	
1.558000	-523.886318	-587.107748	40.575327	11.070242	
1.559000	-523.886319	-587.208005	40.639670	11.078412	
1.560000	-523.886320	-587.306727	40.703029	11.086462	
1.561000	-523.886321	-587.403896	40.765391	11.094388	
1.562000	-523.886322	-587.499493	40.826744	11.102187	
1.563000	-523.886323	-587.593499	40.887076	11.109855	
1.564000	-523.886324	-587.685897	40.946377	11.117389	
1.565000	-523.886325	-587.776672	41.004635	11.124788	
1.566000	-523.886326	-587.865807	41.061841	11.132048	
1.567000	-523.886327	-587.953288	41.117985	11.139168	
1.568000	-523.886328	-588.039100	41.173059	11.146145	
1.569000	-523.886328	-588.123230	41.227053	11.152978	
1.570000	-523.886329	-588.205667	41.279960	11.159667	
1.571000	-523.886330	-588.286397	41.331772	11.166208	
1.572000	-523.886330	-588.365410	41.382482	11.172601	
1.573000	-523.886331	-588.442696	41.432083	11.178846	
1.574000	-523.886331	-588.518245	41.480570	11.184941	
1.575000	-523.886332	-588.592048	41.527936	11.190885	
1.576000	-523.886332	-588.664097	41.574177	11.196678	
1.577000	-523.886333	-588.734385	41.619287	11.202318	
1.578000	-523.886333	-588.802904	41.663263	11.207806	
1.579000	-523.886334	-588.869650	41.706100	11.213141	
1.580000	-523.886334	-588.934616	41.747795	11.218321	
1.581000	-523.886334	-588.997798	41.788345	11.223346	
1.582000	-523.886334	-589.059193	41.827747	11.228217	
1.583000	-523.886335	-589.118796	41.866000	11.232931	
1.584000	-523.886335	-589.176605	41.903102	11.237490	
1.585000	-523.886335	-589.232619	41.939051	11.241891	
1.586000	-523.886335	-589.286835	41.973847	11.246135	
1.587000	-523.886335	-589.339254	42.007489	11.250221	
1.588000	-523.886335	-589.389876	42.039979	11.254149	
1.589000	-523.886335	-589.438702	42.071315	11.257917	
1.590000	-523.886335	-589.485732	42.101499	11.261526	
1.591000	-523.886335	-589.530970	42.130532	11.264976	
1.592000	-523.886335	-589.574417	42.158417	11.268264	
1.593000	-523.886335	-589.616078	42.185154	11.271392	
1.594000	-523.886334	-589.655956	42.210748	11.274359	
1.595000	-523.886334	-589.694057	42.235201	11.277165	
1.596000	-523.886334	-589.730384	42.258516	11.279809	
1.597000	-523.886333	-589.764946	42.280698	11.282292	
1.598000	-523.886333	-589.797747	42.301750	11.284613	
1.599000	-523.886333	-589.828797	42.321678	11.286772	
1.600000	-523.886332	-589.858102	42.340486	11.288771	
1.601000	-523.886332	-589.885671	42.358180	11.290608	
1.602000	-523.886331	-589.911513	42.374765	11.292285	
1.603000	-523.886331	-589.935638	42.390250	11.293802	
1.604000	-523.886330	-589.958058	42.404639	11.295160	
1.605000	-523.886330	-589.978782	42.417940	11.296361	
1.606000	-523.886329	-589.997823	42.430160	11.297404	
1.607000	-523.886329	-590.015193	42.441309	11.298292	
1.608000	-523.886328	-590.030904	42.451393	11.299025	
1.609000	-523.886327	-590.044972	42.460422	11.299607	
1.610000	-523.886326	-590.057408	42.468404	11.300038	
1.611000	-523.886326	-590.068230	42.475350	11.300320	
1.612000	-523.886325	-590.077451	42.481268	11.300456	
1.613000	-523.886324	-590.085088	42.486170	11.300449	
1.614000	-523.886323	-590.091157	42.490066	11.300301	
1.615000	-523.886322	-590.095675	42.492966	11.300014	
1.616000	-523.886321	-590.098661	42.494883	11.299593	
1.617000	-523.886320	-590.100132	42.495828	11.299039	
1.618000	-523.886319	-590.100107	42.495812	11.298357	
1.619000	-523.886318	-590.098606	42.494850	11.297550	
1.620000	-523.886317	-590.095648	42.492952	11.296621	
1.621000	-523.886316	-590.091254	42.490132	11.295575	
1.622000	-523.886315	-590.085444	42.486405	11.294415	
1.623000	-523.886314	-590.078241	42.481783	11.293144	
1.624000	-523.886313	-590.069666	42.476280	11.291767	
1.625000	-523.886311	-590.059742	42.469911	11.290287	
1.626000	-523.886310	-590.048492	42.462692	11.288708	
1.627000	-523.886309	-590.035939	42.454636	11.287033	
1.628000	-523.886308	-590.022106	42.445759	11.285265	
1.629000	-523.886306	-590.007020	42.436077	11.283408	
1.630000	-523.886305	-589.990703	42.425606	11.281465	
1.631000	-523.886304	-589.973182	42.414362	11.279438	
1.632000	-523.886302	-589.954482	42.402362	11.277329	
1.633000	-523.886301	-589.934629	42.389621	11.275141	
1.634000	-523.886299	-589.913651	42.376158	11.272875	
1.635000	-523.886298	-589.891572	42.361989	11.270533	
1.636000	-523.886297	-589.868422	42.347132	11.268117	
1.637000	-523.886295	-589.844227	42.331605	11.265626	
1.638000	-523.886294	-589.819015	42.315425	11.263063	
1.639000	-523.886292	-589.792815	42.298611	11.260428	
1.640000	-523.886290	-589.765655	42.281181	11.257721	
1.641000	-523.886289	-589.737564	42.263153	11.254944	
1.642000	-523.886287	-589.708571	42.244546	11.252095	
1.643000	-523.886286	-589.678706	42.225380	11.249176	
1.644000	-523.886284	-589.647998	42.205673	11.246187	
1.645000	-523.886283	-589.616477	42.185444	11.243128	
1.646000	-523.886281	-589.584173	42.164712	11.239999	
1.647000	-523.886279	-589.551117	42.143498	11.236801	
1.648000	-523.886278	-589.517338	42.121820	11.233533	
1.649000	-523.886276	-589.482868	42.099698	11.230195	
1.650000	-523.886274	-589.447738	42.077152	11.226789	
1.651000	-523.886273	-589.411977	42.054203	11.223315	
1.652000	-523.886271	-589.375618	42.030868	11.219771	
1.653000	-523.886269	-589.338690	42.007170	11.216160	
1.654000	-523.886268	-589.301226	41.983126	11.212482	
1.655000	-523.886266	-589.263257	41.958759	11.208736	
1.656000	-523.886265	-589.224813	41.934086	11.204924	
1.657000	-523.886263	-589.185926	41.909130	11.201045	
1.658000	-523.886261	-589.146626	41.883909	11.197102	
1.659000	-523.886260	-589.106946	41.858443	11.193094	
1.660000	-523.886258	-589.066915	41.832752	11.189021	
1.661000	-523.886256	-589.026566	41.806857	11.184886	
1.662000	-523.886255	-588.985928	41.780777	11.180689	
1.663000	-523.886253	-588.945033	41.754532	11.176430	
1.664000	-523.886252	-588.903911	41.728141	11.172112	
1.665000	-523.886250	-588.862592	41.701623	11.167734	
1.666000	-523.886248	-588.821107	41.674999	11.163298	
1.667000	-523.886247	-588.779485	41.648288	11.158806	
1.668000	-523.886245	-588.737757	41.621508	11.154259	
1.669000	-523.886244	-588.695951	41.594678	11.149657	
1.670000	-523.886242	-588.654097	41.567817	11.145003	
1.671000	-523.886241	-588.612225	41.540944	11.140299	
1.672000	-523.886239	-588.570361	41.514077	11.135545	
1.673000	-523.886238	-588.528535	41.487235	11.130743	
1.674000	-523.886237	-588.486775	41.460434	11.125896	
1.675000	-523.886235	-588.445108	41.433693	11.121006	
1.676000	-523.886234	-588.403560	41.407029	11.116073	
1.677000	-523.886233	-588.362160	41.380459	11.111101	
1.678000	-523.886231	-588.320932	41.354000	11.106091	
1.679000	-523.886230	-588.279904	41.327669	11.101046	
1.680000	-523.886229	-588.239099	41.301481	11.095967	
1.681000	-523.886228	-588.198543	41.275453	11.090858	
1.682000	-523.886226	-588.158260	41.249601	11.085720	
1.683000	-523.886225	-588.118275	41.223939	11.080556	
1.684000	-523.886224	-588.078610	41.198482	11.075368	
1.685000	-523.886223	-588.039287	41.173246	11.070160	
1.686000	-523.886222	-588.000330	41.148244	11.064933	
1.687000	-523.886221	-587.961761	41.123491	11.059691	
1.688000	-523.886220	-587.923599	41.098999	11.054436	
1.689000	-523.886219	-587.885865	41.074783	11.049172	
1.690000	-523.886219	-587.848580	41.050854	11.043900	
1.691000	-523.886218	-587.811762	41.027225	11.038624	
1.692000	-523.886217	-587.775431	41.003908	11.033346	
1.693000	-523.886216	-587.739605	40.980915	11.028071	
1.694000	-523.886215	-587.704300	40.958257	11.022801	
1.695000	-523.886215	-587.669534	40.935945	11.017539	
1.696000	-523.886214	-587.635324	40.913989	11.012288	
1.697000	-523.886214	-587.601684	40.892400	11.007052	
1.698000	-523.886213	-587.568630	40.871186	11.001834	
1.699000	-523.886213	-587.536176	40.850358	10.996637	
1.700000	-523.886212	-587.504337	40.829923	10.991466	
1.701000	-523.886212	-587.473124	40.809892	10.986323	
1.702000	-523.886211	-587.442552	40.790271	10.981212	
1.703000	-523.886211	-587.412632	40.771069	10.976138	
1.704000	-523.886211	-587.383376	40.752292	10.971104	
1.705000	-523.886210	-587.354794	40.733949	10.966115	
1.706000	-523.886210	-587.326897	40.716045	10.961174	
1.707000	-523.886210	-587.299695	40.698586	10.956286	
1.708000	-523.886210	-587.273196	40.681580	10.951456	
1.709000	-523.886210	-587.247411	40.665031	10.946689	
1.710000	-523.886210	-587.222346	40.648944	10.941990	
1.711000	-523.886210	-587.198010	40.633325	10.937364	
1.712000	-523.886209	-587.174409	40.618179	10.932816	
1.713000	-523.886209	-587.151552	40.603509	10.928353	
1.714000	-523.886209	-587.129443	40.589319	10.923981	
1.715000	-523.886210	-587.108089	40.575614	10.919705	
1.716000	-523.886210	-587.087495	40.562397	10.915534	
1.717000	-523.886210	-587.067666	40.549671	10.911472	
1.718000	-523.886210	-587.048607	40.537439	10.907528	
1.719000	-523.886210	-587.030322	40.525704	10.903708	
1.720000	-523.886210	-587.012816	40.514468	10.900020	
1.721000	-523.886210	-586.996090	40.503734	10.896471	
1.722000	-523.886211	-586.980150	40.493503	10.893066	
1.723000	-523.886211	-586.964997	40.483778	10.889814	
1.724000	-523.886211	-586.950634	40.474560	10.886719	
1.725000	-523.886211	-586.937064	40.465850	10.883787	
1.726000	-523.886212	-586.924289	40.457651	10.881023	
1.727000	-523.886212	-586.912310	40.449963	10.878432	
1.728000	-523.886212	-586.901129	40.442787	10.876016	
1.729000	-523.886212	-586.890748	40.436124	10.873779	
1.730000	-523.886213	-586.881167	40.429975	10.871722	
1.731000	-523.886213	-586.872389	40.424341	10.869847	
1.732000	-523.886213	-586.864413	40.419221	10.868154	
1.733000	-523.886214	-586.857240	40.414618	10.866645	
1.734000	-523.886214	-586.850872	40.410530	10.865319	
1.735000	-523.886215	-586.845307	40.406959	10.864176	
1.736000	-523.886215	-586.840548	40.403904	10.863217	
1.737000	-523.886215	-586.836593	40.401366	10.862440	
1.738000	-523.886216	-586.833444	40.399344	10.861846	
1.739000	-523.886216	-586.831099	40.397839	10.861433	
1.740000	-523.886216	-586.829560	40.396851	10.861203	
1.741000	-523.886217	-586.828826	40.396380	10.861153	
1.742000	-523.886217	-586.828897	40.396425	10.861285	
1.743000	-523.886218	-586.829773	40.396987	10.861598	
1.744000	-523.886218	-586.831453	40.398065	10.862092	
1.745000	-523.886218	-586.833938	40.399660	10.862766	
1.746000	-523.886219	-586.837227	40.401770	10.863622	
1.747000	-523.886219	-586.841320	40.404397	10.864660	
1.748000	-523.886220	-586.846217	40.407540	10.865879	
1.749000	-523.886220	-586.851917	40.411198	10.867282	
1.750000	-523.886220	-586.858421	40.415371	10.868867	
1.751000	-523.886221	-586.865728	40.420061	10.870637	
1.752000	-523.886221	-586.873837	40.425265	10.872591	
1.753000	-523.886221	-586.882749	40.430984	10.874731	
1.754000	-523.886222	-586.892463	40.437219	10.877056	
1.755000	-523.886222	-586.902980	40.443968	10.879566	
1.756000	-523.886223	-586.914298	40.451232	10.882262	
1.757000	-523.886223	-586.926419	40.459011	10.885140	
1.758000	-523.886223	-586.939341	40.467304	10.888200	
1.759000	-523.886224	-586.953066	40.476112	10.891438	
1.760000	-523.886224	-586.967592	40.485435	10.894850	
1.761000	-523.886224	-586.982920	40.495272	10.898431	
1.762000	-523.886225	-586.999050	40.505624	10.902174	
1.763000	-523.886225	-587.015983	40.516491	10.906073	
1.764000	-523.886225	-587.033718	40.527873	10.910119	
1.765000	-523.886226	-587.052255	40.539770	10.914305	
1.766000	-523.886226	-587.071596	40.552183	10.918622	
1.767000	-523.886226	-587.091739	40.565111	10.923060	
1.768000	-523.886226	-587.112687	40.578554	10.927611	
1.769000	-523.886227	-587.134438	40.592514	10.932266	
1.770000	-523.886227	-587.156994	40.606991	10.937015	
1.771000	-523.886227	-587.180356	40.621984	10.941849	
1.772000	-523.886228	-587.204523	40.637494	10.946760	
1.773000	-523.886228	-587.229497	40.653522	10.951739	
1.774000	-523.886228	-587.255279	40.670068	10.956778	
1.775000	-523.886228	-587.281868	40.687134	10.961869	
1.776000	-523.886229	-587.309267	40.704718	10.967004	
1.777000	-523.886229	-587.337477	40.722823	10.972176	
1.778000	-523.886229	-587.366498	40.741448	10.977378	
1.779000	-523.886229	-587.396331	40.760595	10.982602	
1.780000	-523.886229	-587.426978	40.780264	10.987843	
1.781000	-523.886230	-587.458440	40.800456	10.993094	
1.782000	-523.886230	-587.490718	40.821172	10.998349	
1.783000	-523.886230	-587.523815	40.842413	11.003602	
1.784000	-523.886230	-587.557730	40.864180	11.008849	
1.785000	-523.886230	-587.592467	40.886473	11.014083	
1.786000	-523.886230	-587.628026	40.909295	11.019300	
1.787000	-523.886231	-587.664409	40.932645	11.024495	
1.788000	-523.886231	-587.701617	40.956526	11.029664	
1.789000	-523.886231	-587.739654	40.980937	11.034802	
1.790000	-523.886231	-587.778519	41.005881	11.039907	
1.791000	-523.886231	-587.818216	41.031358	11.044974	
1.792000	-523.886231	-587.858745	41.057370	11.050000	
1.793000	-523.886231	-587.900109	41.083917	11.054981	
1.794000	-523.886231	-587.942310	41.111001	11.059916	
1.795000	-523.886231	-587.985348	41.138623	11.064801	
1.796000	-523.886231	-588.029226	41.166783	11.069635	
1.797000	-523.886232	-588.073945	41.195484	11.074416	
1.798000	-523.886232	-588.119507	41.224725	11.079141	
1.799000	-523.886232	-588.165913	41.254509	11.083811	
1.800000	-523.886232	-588.213164	41.284834	11.088423	
1.801000	-523.886232	-588.261262	41.315704	11.092977	
1.802000	-523.886232	-588.310208	41.347117	11.097474	
1.803000	-523.886232	-588.360002	41.379074	11.101912	
1.804000	-523.886232	-588.410645	41.411577	11.106292	
1.805000	-523.886232	-588.462137	41.444624	11.110615	
1.806000	-523.886232	-588.514478	41.478216	11.114882	
1.807000	-523.886233	-588.567669	41.512354	11.119093	
1.808000	-523.886233	-588.621708	41.547036	11.123251	
1.809000	-523.886233	-588.676595	41.582262	11.127356	
1.810000	-523.886233	-588.732328	41.618031	11.131411	
1.811000	-523.886233	-588.788906	41.654343	11.135418	
1.812000	-523.886234	-588.846327	41.691195	11.139379	
1.813000	-523.886234	-588.904589	41.728587	11.143296	
1.814000	-523.886234	-588.963687	41.766516	11.147173	
1.815000	-523.886235	-589.023620	41.804981	11.151011	
1.816000	-523.886235	-589.084383	41.843978	11.154813	
1.817000	-523.886235	-589.145972	41.883505	11.158583	
1.818000	-523.886236	-589.208381	41.923559	11.162323	
1.819000	-523.886236	-589.271605	41.964136	11.166036	
1.820000	-523.886237	-589.335638	42.005231	11.169725	
1.821000	-523.886237	-589.400473	42.046842	11.173393	
1.822000	-523.886238	-589.466102	42.088962	11.177043	
1.823000	-523.886238	-589.532518	42.131587	11.180677	
1.824000	-523.886239	-589.599711	42.174712	11.184299	
1.825000	-523.886239	-589.667673	42.218329	11.187911	
1.826000	-523.886240	-589.736393	42.262433	11.191516	
1.827000	-523.886241	-589.805861	42.307016	11.195117	
1.828000	-523.886242	-589.876065	42.352072	11.198717	
1.829000	-523.886242	-589.946992	42.397593	11.202319	
1.830000	-523.886243	-590.018632	42.443570	11.205927	
1.831000	-523.886244	-590.090969	42.489996	11.209543	
1.832000	-523.886245	-590.163990	42.536860	11.213173	
1.833000	-523.886246	-590.237680	42.584153	11.216819	
1.834000	-523.886247	-590.312024	42.631866	11.220489	
1.835000	-523.886248	-590.387006	42.679989	11.224186	
1.836000	-523.886249	-590.462609	42.728510	11.227919	
1.837000	-523.886250	-590.538816	42.777419	11.231695	
1.838000	-523.886251	-590.615610	42.826704	11.235526	
1.839000	-523.886252	-590.692972	42.876354	11.239422	
1.840000	-523.886254	-590.770884	42.926357	11.243401	
1.841000	-523.886255	-590.849326	42.976700	11.247483	
1.842000	-523.886256	-590.928278	43.027371	11.251695	
1.843000	-523.886257	-591.007722	43.078357	11.256070	
1.844000	-523.886258	-591.087635	43.129644	11.260655	
1.845000	-523.886260	-591.167998	43.181220	11.265505	
1.846000	-523.886261	-591.248789	43.233070	11.270683	
1.847000	-523.886262	-591.329986	43.285182	11.276249	
1.848000	-523.886264	-591.411569	43.337541	11.282242	
1.849000	-523.886265	-591.493515	43.390132	11.288673	
1.850000	-523.886266	-591.575801	43.442943	11.295533	
1.851000	-523.886267	-591.658407	43.495958	11.302800	
1.852000	-523.886269	-591.741309	43.549164	11.310447	
1.853000	-523.886270	-591.824485	43.602545	11.318442	
1.854000	-523.886271	-591.907913	43.656088	11.326750	
1.855000	-523.886273	-591.991570	43.709778	11.335328	
1.856000	-523.886274	-592.075433	43.763600	11.344138	
1.857000	-523.886275	-592.159481	43.817541	11.353138	
1.858000	-523.886276	-592.243691	43.871586	11.362292	
1.859000	-523.886278	-592.328040	43.925720	11.371567	
1.860000	-523.886279	-592.412507	43.979930	11.380934	
1.861000	-523.886280	-592.497070	44.034201	11.390368	
1.862000	-523.886281	-592.581707	44.088520	11.399849	
1.863000	-523.886283	-592.666396	44.142873	11.409359	
1.864000	-523.886284	-592.751117	44.197246	11.418883	
1.865000	-523.886285	-592.835847	44.251625	11.428407	
1.866000	-523.886286	-592.920567	44.305997	11.437921	
1.867000	-523.886287	-593.005255	44.360349	11.447413	
1.868000	-523.886288	-593.089892	44.414667	11.456876	
1.869000	-523.886289	-593.174457	44.468940	11.466302	
1.870000	-523.886290	-593.258930	44.523154	11.475683	
1.871000	-523.886291	-593.343292	44.577297	11.485014	
1.872000	-523.886292	-593.427524	44.631356	11.494288	
1.873000	-523.886293	-593.511607	44.685320	11.503501	
1.874000	-523.886294	-593.595523	44.739176	11.512646	
1.875000	-523.886295	-593.679252	44.792912	11.521719	
1.876000	-523.886296	-593.762777	44.846518	11.530716	
1.877000	-523.886297	-593.846079	44.899981	11.539633	
1.878000	-523.886298	-593.929143	44.953290	11.548465	
1.879000	-523.886299	-594.011949	45.006434	11.557208	
1.880000	-523.886300	-594.094481	45.059402	11.565860	
1.881000	-523.886301	-594.176721	45.112183	11.574415	
1.882000	-523.886302	-594.258654	45.164767	11.582870	
1.883000	-523.886303	-594.340263	45.217143	11.591222	
1.884000	-523.886303	-594.421530	45.269299	11.599467	
1.885000	-523.886304	-594.502441	45.321227	11.607601	
1.886000	-523.886305	-594.582978	45.372915	11.615622	
1.887000	-523.886306	-594.663126	45.424353	11.623525	
1.888000	-523.886307	-594.742868	45.475531	11.631307	
1.889000	-523.886308	-594.822190	45.526439	11.638965	
1.890000	-523.886308	-594.901074	45.577066	11.646496	
1.891000	-523.886309	-594.979505	45.627402	11.653895	
1.892000	-523.886310	-595.057468	45.677438	11.661159	
1.893000	-523.886311	-595.134946	45.727162	11.668286	
1.894000	-523.886312	-595.211923	45.776566	11.675272	
1.895000	-523.886313	-595.288385	45.825638	11.682113	
1.896000	-523.886313	-595.364314	45.874369	11.688808	
1.897000	-523.886314	-595.439695	45.922747	11.695352	
1.898000	-523.886315	-595.514512	45.970764	11.701744	
1.899000	-523.886316	-595.588749	46.018408	11.707981	
1.900000	-523.886317	-595.662388	46.065670	11.714061	
1.901000	-523.886318	-595.735415	46.112537	11.719983	
1.902000	-523.886319	-595.807813	46.159001	11.725746	
1.903000	-523.886320	-595.879565	46.205051	11.731349	
1.904000	-523.886321	-595.950654	46.250675	11.736795	
1.905000	-523.886322	-596.021064	46.295863	11.742084	
1.906000	-523.886323	-596.090778	46.340605	11.747220	
1.907000	-523.886324	-596.159779	46.384889	11.752209	
1.908000	-523.886325	-596.228049	46.428704	11.757059	
1.909000	-523.886326	-596.295572	46.472039	11.761780	
1.910000	-523.886327	-596.362331	46.514884	11.766389	
1.911000	-523.886328	-596.428308	46.557228	11.770904	
1.912000	-523.886329	-596.493486	46.599058	11.775353	
1.913000	-523.886330	-596.557847	46.640364	11.779765	
1.914000	-523.886331	-596.621374	46.681135	11.784175	
1.915000	-523.886332	-596.684050	46.721359	11.788614	
1.916000	-523.886333	-596.745858	46.761027	11.793105	
1.917000	-523.886334	-596.806779	46.800125	11.797658	
1.918000	-523.886335	-596.866797	46.838644	11.802263	
1.919000	-523.886337	-596.925895	46.876572	11.806895	
1.920000	-523.886338	-596.984055	46.913898	11.811523	
1.921000	-523.886339	-597.041260	46.950612	11.816112	
1.922000	-523.886340	-597.097495	46.986702	11.820631	
1.923000	-523.886341	-597.152742	47.022159	11.825056	
1.924000	-523.886342	-597.206985	47.056971	11.829366	
1.925000	-523.886343	-597.260208	47.091129	11.833545	
1.926000	-523.886344	-597.312395	47.124622	11.837583	
1.927000	-523.886345	-597.363531	47.157440	11.841471	
1.928000	-523.886346	-597.413601	47.189574	11.845205	
1.929000	-523.886347	-597.462590	47.221015	11.848782	
1.930000	-523.886348	-597.510485	47.251753	11.852201	
1.931000	-523.886349	-597.557271	47.281779	11.855466	
1.932000	-523.886349	-597.602935	47.311086	11.858578	
1.933000	-523.886350	-597.647464	47.339664	11.861543	
1.934000	-523.886351	-597.690847	47.367507	11.864368	
1.935000	-523.886352	-597.733072	47.394606	11.867063	
1.936000	-523.886353	-597.774128	47.420955	11.869638	
1.937000	-523.886353	-597.814005	47.446547	11.872106	
1.938000	-523.886354	-597.852693	47.471377	11.874482	
1.939000	-523.886354	-597.890184	47.495438	11.876781	
1.940000	-523.886355	-597.926469	47.518726	11.879018	
1.941000	-523.886356	-597.961542	47.541235	11.881210	
1.942000	-523.886356	-597.995396	47.562962	11.883368	
1.943000	-523.886356	-598.028025	47.583903	11.885502	
1.944000	-523.886357	-598.059424	47.604054	11.887616	
1.945000	-523.886357	-598.089590	47.623415	11.889711	
1.946000	-523.886357	-598.118520	47.641981	11.891785	
1.947000	-523.886357	-598.146211	47.659753	11.893831	
1.948000	-523.886358	-598.172662	47.676730	11.895843	
1.949000	-523.886358	-598.197874	47.692910	11.897814	
1.950000	-523.886358	-598.221846	47.708296	11.899736	
1.951000	-523.886358	-598.244581	47.722887	11.901605	
1.952000	-523.886357	-598.266081	47.736686	11.903414	
1.953000	-523.886357	-598.286349	47.749694	11.905158	
1.954000	-523.886357	-598.305391	47.761915	11.906836	
1.955000	-523.886357	-598.323212	47.773353	11.908442	
1.956000	-523.886356	-598.339818	47.784010	11.909975	
1.957000	-523.886356	-598.355216	47.793893	11.911434	
1.958000	-523.886356	-598.369415	47.803007	11.912815	
1.959000	-523.886355	-598.382425	47.811357	11.914117	
1.960000	-523.886354	-598.394255	47.818950	11.915339	
1.961000	-523.886354	-598.404917	47.825793	11.916478	
1.962000	-523.886353	-598.414423	47.831894	11.917534	
1.963000	-523.886352	-598.422786	47.837262	11.918504	
1.964000	-523.886352	-598.430019	47.841904	11.919388	
1.965000	-523.886351	-598.436137	47.845831	11.920182	
1.966000	-523.886350	-598.441155	47.849053	11.920887	
1.967000	-523.886349	-598.445091	47.851579	11.921500	
1.968000	-523.886348	-598.447960	47.853421	11.922019	
1.969000	-523.886347	-598.449781	47.854591	11.922444	
1.970000	-523.886346	-598.450571	47.855098	11.922773	
1.971000	-523.886345	-598.450350	47.854957	11.923004	
1.972000	-523.886343	-598.449138	47.854180	11.923137	
1.973000	-523.886342	-598.446954	47.852779	11.923170	
1.974000	-523.886341	-598.443819	47.850768	11.923103	
1.975000	-523.886340	-598.439755	47.848161	11.922935	
1.976000	-523.886339	-598.434784	47.844971	11.922665	
1.977000	-523.886337	-598.428926	47.841212	11.922292	
1.978000	-523.886336	-598.422206	47.836900	11.921817	
1.979000	-523.886335	-598.414645	47.832049	11.921240	
1.980000	-523.886333	-598.406267	47.826672	11.920559	
1.981000	-523.886332	-598.397095	47.820787	11.919777	
1.982000	-523.886331	-598.387153	47.814407	11.918892	
1.983000	-523.886329	-598.376464	47.807547	11.917906	
1.984000	-523.886328	-598.365051	47.800224	11.916819	
1.985000	-523.886327	-598.352940	47.792451	11.915632	
1.986000	-523.886325	-598.340153	47.784245	11.914347	
1.987000	-523.886324	-598.326714	47.775621	11.912963	
1.988000	-523.886322	-598.312646	47.766594	11.911484	
1.989000	-523.886321	-598.297974	47.757178	11.909909	
1.990000	-523.886320	-598.282721	47.747389	11.908240	
1.991000	-523.886319	-598.266909	47.737242	11.906480	
1.992000	-523.886317	-598.250562	47.726752	11.904629	
1.993000	-523.886316	-598.233702	47.715931	11.902689	
1.994000	-523.886315	-598.216351	47.704796	11.900662	
1.995000	-523.886314	-598.198530	47.693360	11.898550	
1.996000	-523.886312	-598.180262	47.681636	11.896354	
1.997000	-523.886311	-598.161566	47.669638	11.894075	
1.998000	-523.886310	-598.142464	47.657379	11.891715	
1.999000	-523.886309	-598.122975	47.644871	11.889275	
2.000000	-523.886308	-598.103117	47.632128	11.886757	
