TIME [ps]	E_TOT [kJ/mol]	E_POT [kJ/mol]	TEMP. [K]	PRES. [kJ/mol/nm^3]
0.001000	48.948904	-669.251310	460.938765	36.672853	
0.002000	48.948879	-669.148950	460.873055	36.671668	
0.003000	48.948849	-668.991951	460.772274	36.669079	
0.004000	48.948813	-668.779958	460.636194	36.665078	
0.005000	48.948771	-668.512549	460.464546	36.659656	
0.006000	48.948723	-668.189238	460.257015	36.652800	
0.007000	48.948670	-667.809469	460.013246	36.644498	
0.008000	48.948610	-667.372621	459.732840	36.634734	
0.009000	48.948545	-666.878005	459.415355	36.623492	
0.010000	48.948473	-666.324863	459.060304	36.610753	
0.011000	48.948396	-665.712370	458.667158	36.596498	
0.012000	48.948312	-665.039634	458.235345	36.580704	
0.013000	48.948223	-664.305694	457.764246	36.563348	
0.014000	48.948127	-663.509518	457.253202	36.544405	
0.015000	48.948025	-662.650008	456.701506	36.523847	
0.016000	48.947917	-661.725998	456.108409	36.501645	
0.017000	48.947803	-660.736250	455.473119	36.477768	
0.018000	48.947682	-659.679462	454.794797	36.452184	
0.019000	48.947555	-658.554259	454.072565	36.424858	
0.020000	48.947422	-657.359204	453.305496	36.395754	
0.021000	48.947282	-656.092789	452.492625	36.364832	
0.022000	48.947137	-654.753442	451.632943	36.332053	
0.023000	48.946985	-653.339527	450.725399	36.297375	
0.024000	48.946827	-651.849342	449.768901	36.260752	
0.025000	48.946663	-650.281127	448.762320	36.222140	
0.026000	48.946493	-648.633060	447.704487	36.181489	
0.027000	48.946318	-646.903266	446.594197	36.138750	
0.028000	48.946136	-645.089812	445.430211	36.093870	
0.029000	48.945950	-643.190718	444.211259	36.046797	
0.030000	48.945758	-641.203959	442.936040	35.997473	
0.031000	48.945562	-639.127466	441.603227	35.945841	
0.032000	48.945361	-636.959138	440.211471	35.891841	
0.033000	48.945156	-634.696843	438.759406	35.835413	
0.034000	48.944948	-632.338429	437.245649	35.776493	
0.035000	48.944737	-629.881729	435.668811	35.715016	
0.036000	48.944524	-627.324572	434.027498	35.650917	
0.037000	48.944309	-624.664795	432.320324	35.584127	
0.038000	48.944093	-621.900251	430.545909	35.514579	
0.039000	48.943878	-619.028824	428.702897	35.442201	
0.040000	48.943664	-616.048443	426.789960	35.366924	
0.041000	48.943452	-612.957098	424.805808	35.288676	
0.042000	48.943243	-609.752857	422.749202	35.207385	
0.043000	48.943040	-606.433883	420.618964	35.122979	
0.044000	48.942843	-602.998458	418.413992	35.035387	
0.045000	48.942655	-599.445005	416.133276	34.944537	
0.046000	48.942476	-595.772109	413.775907	34.850359	
0.047000	48.942308	-591.978545	411.341101	34.752786	
0.048000	48.942155	-588.063305	408.828213	34.651750	
0.049000	48.942017	-584.025627	406.236755	34.547188	
0.050000	48.941897	-579.865027	403.566417	34.439040	
0.051000	48.941798	-575.581329	400.817089	34.327249	
0.052000	48.941721	-571.174701	397.988879	34.211765	
0.053000	48.941669	-566.645687	395.082138	34.092543	
0.054000	48.941646	-561.995241	392.097480	33.969544	
0.055000	48.941652	-557.224766	389.035808	33.842739	
0.056000	48.941691	-552.336144	385.898330	33.712106	
0.057000	48.941765	-547.331775	382.686588	33.577636	
0.058000	48.941876	-542.214604	379.402474	33.439331	
0.059000	48.942027	-536.988156	376.048252	33.297207	
0.060000	48.942219	-531.656562	372.626574	33.151295	
0.061000	48.942454	-526.224581	369.140496	33.001642	
0.062000	48.942732	-520.697624	365.593490	32.848318	
0.063000	48.943056	-515.081761	361.989454	32.691409	
0.064000	48.943425	-509.383739	358.332716	32.531029	
0.065000	48.943839	-503.610972	354.628037	32.367313	
0.066000	48.944297	-497.771542	350.880602	32.200426	
0.067000	48.944798	-491.874181	347.096015	32.030563	
0.068000	48.945340	-485.928249	343.280282	31.857950	
0.069000	48.945921	-479.943697	339.439787	31.682845	
0.070000	48.946538	-473.931031	335.581272	31.505545	
0.071000	48.947186	-467.901253	331.711794	31.326383	
0.072000	48.947862	-461.865807	327.838697	31.145732	
0.073000	48.948560	-455.836509	323.969559	30.964005	
0.074000	48.949276	-449.825467	320.112150	30.781662	
0.075000	48.950003	-443.845004	316.274373	30.599199	
0.076000	48.950737	-437.907567	312.464214	30.417149	
0.077000	48.951470	-432.025639	308.689681	30.236057	
0.078000	48.952197	-426.211642	304.958742	30.056442	
0.079000	48.952912	-420.477850	301.279269	29.878749	
0.080000	48.953608	-414.836290	297.658980	29.703309	
0.081000	48.954282	-409.298660	294.105378	29.530333	
0.082000	48.954927	-403.876239	290.625698	29.359942	
0.083000	48.955539	-398.579817	287.226863	29.192224	
0.084000	48.956114	-393.419616	283.915431	29.027267	
0.085000	48.956648	-388.405234	280.697558	28.865193	
0.086000	48.957139	-383.545587	277.578966	28.706167	
0.087000	48.957585	-378.848869	274.564912	28.550394	
0.088000	48.957983	-374.322514	271.660166	28.398119	
0.089000	48.958333	-369.973173	268.868997	28.249617	
0.090000	48.958634	-365.806697	266.195158	28.105182	
0.091000	48.958887	-361.828129	263.641887	27.965114	
0.092000	48.959091	-358.041706	261.211904	27.829702	
0.093000	48.959249	-354.450865	258.907414	27.699211	
0.094000	48.959360	-351.058258	256.730120	27.573870	
0.095000	48.959427	-347.865769	254.681233	27.453869	
0.096000	48.959451	-344.874544	252.761489	27.339368	
0.097000	48.959435	-342.085014	250.971167	27.230506	
0.098000	48.959381	-339.496928	249.310106	27.127412	
0.099000	48.959291	-337.109389	247.777733	27.030209	
0.100000	48.959167	-334.920886	246.373078	26.939014	
0.101000	48.959011	-332.929337	245.094808	26.853934	
0.102000	48.958827	-331.132121	243.941242	26.775064	
0.103000	48.958617	-329.526122	242.910382	26.702476	
0.104000	48.958383	-328.107765	241.999934	26.636216	
0.105000	48.958127	-326.873057	241.207338	26.576298	
0.106000	48.957852	-325.817624	240.529788	26.522702	
0.107000	48.957560	-324.936751	239.964259	26.475372	
0.108000	48.957254	-324.225418	239.507531	26.434213	
0.109000	48.956935	-323.678339	239.156213	26.399095	
0.110000	48.956606	-323.289995	238.906763	26.369860	
0.111000	48.956269	-323.054672	238.755517	26.346318	
0.112000	48.955926	-322.966494	238.698705	26.328260	
0.113000	48.955578	-323.019455	238.732472	26.315458	
0.114000	48.955228	-323.207452	238.852904	26.307672	
0.115000	48.954878	-323.524314	239.056039	26.304654	
0.116000	48.954528	-323.963830	239.337895	26.306149	
0.117000	48.954181	-324.519777	239.694478	26.311898	
0.118000	48.953837	-325.185948	240.121804	26.321644	
0.119000	48.953499	-325.956171	240.615913	26.335130	
0.120000	48.953167	-326.824335	241.172886	26.352100	
0.121000	48.952843	-327.784409	241.788850	26.372305	
0.122000	48.952527	-328.830459	242.459999	26.395498	
0.123000	48.952220	-329.956670	243.182601	26.421442	
0.124000	48.951924	-331.157353	243.953006	26.449903	
0.125000	48.951638	-332.426964	244.767655	26.480661	
0.126000	48.951363	-333.760114	245.623090	26.513500	
0.127000	48.951099	-335.151574	246.515956	26.548218	
0.128000	48.950847	-336.596289	247.443008	26.584624	
0.129000	48.950608	-338.089378	248.401114	26.622538	
0.130000	48.950380	-339.626142	249.387258	26.661798	
0.131000	48.950164	-341.202063	250.398541	26.702254	
0.132000	48.949960	-342.812808	251.432181	26.743783	
0.133000	48.949767	-344.454228	252.485516	26.786286	
0.134000	48.949586	-346.122354	253.555998	26.829702	
0.135000	48.949416	-347.813398	254.641196	26.874020	
0.136000	48.949256	-349.523747	255.738791	26.919276	
0.137000	48.949107	-351.249959	256.846573	26.965529	
0.138000	48.948968	-352.988759	257.962440	27.012786	
0.139000	48.948838	-354.737034	259.084395	27.060935	
0.140000	48.948718	-356.491824	260.210536	27.109750	
0.141000	48.948606	-358.250321	261.339062	27.158973	
0.142000	48.948502	-360.009857	262.468261	27.208367	
0.143000	48.948405	-361.767903	263.596508	27.257741	
0.144000	48.948316	-363.522061	264.722264	27.306945	
0.145000	48.948234	-365.270057	265.844070	27.355856	
0.146000	48.948159	-367.009739	266.960544	27.404379	
0.147000	48.948089	-368.739066	268.070377	27.452432	
0.148000	48.948026	-370.456111	269.172330	27.499948	
0.149000	48.947968	-372.159050	270.265234	27.546871	
0.150000	48.947916	-373.846160	271.347983	27.593153	
0.151000	48.947869	-375.515818	272.419534	27.638756	
0.152000	48.947826	-377.166495	273.478906	27.683648	
0.153000	48.947789	-378.796753	274.525177	27.727803	
0.154000	48.947757	-380.405246	275.557482	27.771204	
0.155000	48.947729	-381.990713	276.575013	27.813836	
0.156000	48.947705	-383.551982	277.577016	27.855692	
0.157000	48.947686	-385.087963	278.562791	27.896771	
0.158000	48.947672	-386.597649	279.531694	27.937075	
0.159000	48.947661	-388.080114	280.483129	27.976611	
0.160000	48.947655	-389.534514	281.416555	28.015390	
0.161000	48.947653	-390.960083	282.331479	28.053425	
0.162000	48.947655	-392.356130	283.227460	28.090732	
0.163000	48.947661	-393.722045	284.104103	28.127328	
0.164000	48.947671	-395.057287	284.961064	28.163227	
0.165000	48.947684	-396.361392	285.798044	28.198445	
0.166000	48.947702	-397.633966	286.614789	28.232993	
0.167000	48.947722	-398.874683	287.411091	28.266878	
0.168000	48.947747	-400.083285	288.186783	28.300104	
0.169000	48.947774	-401.259578	288.941742	28.332670	
0.170000	48.947804	-402.403430	289.675882	28.364576	
0.171000	48.947837	-403.514769	290.389158	28.395814	
0.172000	48.947873	-404.593579	291.081558	28.426382	
0.173000	48.947912	-405.639897	291.753106	28.456274	
0.174000	48.947952	-406.653811	292.403860	28.485488	
0.175000	48.947995	-407.635458	293.033905	28.514024	
0.176000	48.948040	-408.585016	293.643357	28.541885	
0.177000	48.948086	-409.502707	294.232358	28.569079	
0.178000	48.948133	-410.388788	294.801072	28.595617	
0.179000	48.948182	-411.243551	295.349689	28.621515	
0.180000	48.948232	-412.067322	295.878414	28.646796	
0.181000	48.948283	-412.860451	296.387474	28.671487	
0.182000	48.948334	-413.623315	296.877111	28.695624	
0.183000	48.948386	-414.356314	297.347581	28.719249	
0.184000	48.948438	-415.059865	297.799152	28.742413	
0.185000	48.948491	-415.734403	298.232102	28.765174	
0.186000	48.948543	-416.380378	298.646720	28.787593	
0.187000	48.948595	-416.998247	299.043300	28.809732	
0.188000	48.948647	-417.588482	299.422144	28.831648	
0.189000	48.948698	-418.151557	299.783557	28.853386	
0.190000	48.948749	-418.687954	300.127847	28.874978	
0.191000	48.948799	-419.198156	300.455326	28.896440	
0.192000	48.948848	-419.682649	300.766304	28.917773	
0.193000	48.948897	-420.141920	301.061094	28.938966	
0.194000	48.948944	-420.576450	301.340005	28.959999	
0.195000	48.948991	-420.986723	301.603346	28.980840	
0.196000	48.949037	-421.373215	301.851425	29.001449	
0.197000	48.949081	-421.736399	302.084544	29.021777	
0.198000	48.949125	-422.076742	302.303003	29.041766	
0.199000	48.949167	-422.394707	302.507099	29.061357	
0.200000	48.949209	-422.690747	302.697124	29.080486	
0.201000	48.949249	-422.965312	302.873365	29.099091	
0.202000	48.949288	-423.218844	303.036105	29.117116	
0.203000	48.949326	-423.451776	303.185625	29.134507	
0.204000	48.949363	-423.664537	303.322198	29.151217	
0.205000	48.949399	-423.857550	303.446097	29.167207	
0.206000	48.949434	-424.031232	303.557588	29.182443	
0.207000	48.949469	-424.185994	303.656936	29.196895	
0.208000	48.949502	-424.322246	303.744403	29.210543	
0.209000	48.949535	-424.440392	303.820250	29.223370	
0.210000	48.949568	-424.540838	303.884737	29.235362	
0.211000	48.949600	-424.623989	303.938123	29.246513	
0.212000	48.949631	-424.690251	303.980670	29.256816	
0.213000	48.949663	-424.740034	304.012641	29.266272	
0.214000	48.949695	-424.773756	304.034304	29.274883	
0.215000	48.949727	-424.791840	304.045931	29.282654	
0.216000	48.949759	-424.794722	304.047802	29.289592	
0.217000	48.949792	-424.782849	304.040203	29.295707	
0.218000	48.949826	-424.756685	304.023433	29.301012	
0.219000	48.949861	-424.716711	303.997800	29.305521	
0.220000	48.949897	-424.663429	303.963627	29.309250	
0.221000	48.949934	-424.597364	303.921251	29.312217	
0.222000	48.949974	-424.519069	303.871026	29.314443	
0.223000	48.950015	-424.429125	303.813326	29.315950	
0.224000	48.950058	-424.328143	303.748544	29.316760	
0.225000	48.950103	-424.216770	303.677094	29.316900	
0.226000	48.950150	-424.095688	303.599415	29.316397	
0.227000	48.950201	-423.965618	303.515969	29.315279	
0.228000	48.950253	-423.827320	303.427243	29.313579	
0.229000	48.950309	-423.681595	303.333753	29.311328	
0.230000	48.950367	-423.529286	303.236039	29.308562	
0.231000	48.950428	-423.371279	303.134669	29.305319	
0.232000	48.950492	-423.208502	303.030240	29.301639	
0.233000	48.950558	-423.041924	302.923374	29.297564	
0.234000	48.950628	-422.872557	302.814719	29.293139	
0.235000	48.950699	-422.701449	302.704949	29.288413	
0.236000	48.950773	-422.529684	302.594758	29.283438	
0.237000	48.950850	-422.358381	302.484865	29.278269	
0.238000	48.950928	-422.188687	302.376006	29.272964	
0.239000	48.951007	-422.021772	302.268932	29.267584	
0.240000	48.951088	-421.858828	302.164406	29.262193	
0.241000	48.951169	-421.701058	302.063202	29.256860	
0.242000	48.951251	-421.549672	301.966096	29.251652	
0.243000	48.951332	-421.405881	301.873863	29.246641	
0.244000	48.951413	-421.270888	301.787277	29.241897	
0.245000	48.951493	-421.145881	301.707099	29.237492	
0.246000	48.951571	-421.032025	301.634076	29.233493	
0.247000	48.951646	-420.930451	301.568935	29.229966	
0.248000	48.951719	-420.842254	301.512378	29.226973	
0.249000	48.951789	-420.768480	301.465074	29.224569	
0.250000	48.951854	-420.710119	301.427660	29.222806	
0.251000	48.951916	-420.668098	301.400731	29.221727	
0.252000	48.951973	-420.643275	301.384836	29.221368	
0.253000	48.952025	-420.636432	301.380477	29.221760	
0.254000	48.952071	-420.648267	301.388103	29.222924	
0.255000	48.952112	-420.679392	301.408106	29.224876	
0.256000	48.952147	-420.730330	301.440819	29.227624	
0.257000	48.952176	-420.801505	301.486518	29.231169	
0.258000	48.952199	-420.893249	301.545414	29.235507	
0.259000	48.952217	-421.005794	301.617656	29.240626	
0.260000	48.952228	-421.139274	301.703330	29.246508	
0.261000	48.952233	-421.293725	301.802459	29.253131	
0.262000	48.952232	-421.469086	301.915006	29.260466	
0.263000	48.952226	-421.665205	302.040870	29.268481	
0.264000	48.952214	-421.881835	302.179895	29.277139	
0.265000	48.952197	-422.118645	302.331868	29.286401	
0.266000	48.952176	-422.375218	302.496522	29.296227	
0.267000	48.952150	-422.651061	302.673541	29.306574	
0.268000	48.952120	-422.945607	302.862561	29.317403	
0.269000	48.952087	-423.258221	303.063174	29.328675	
0.270000	48.952050	-423.588206	303.274933	29.340353	
0.271000	48.952010	-423.934808	303.497356	29.352410	
0.272000	48.951968	-424.297223	303.729926	29.364822	
0.273000	48.951924	-424.674604	303.972099	29.377576	
0.274000	48.951877	-425.066061	304.223306	29.390671	
0.275000	48.951830	-425.470674	304.482955	29.404119	
0.276000	48.951781	-425.887495	304.750438	29.417943	
0.277000	48.951731	-426.315550	305.025130	29.432176	
0.278000	48.951681	-426.753851	305.306398	29.446848	
0.279000	48.951630	-427.201394	305.593598	29.461977	
0.280000	48.951580	-427.657169	305.886080	29.477553	
0.281000	48.951530	-428.120161	306.183195	29.493534	
0.282000	48.951480	-428.589355	306.484290	29.509854	
0.283000	48.951431	-429.063739	306.788717	29.526429	
0.284000	48.951383	-429.542311	307.095832	29.543178	
0.285000	48.951336	-430.024077	307.404998	29.560027	
0.286000	48.951290	-430.508060	307.715587	29.576919	
0.287000	48.951246	-430.993297	308.026983	29.593812	
0.288000	48.951203	-431.478848	308.338581	29.610680	
0.289000	48.951163	-431.963795	308.649793	29.627511	
0.290000	48.951124	-432.447245	308.960044	29.644303	
0.291000	48.951087	-432.928330	309.268779	29.661063	
0.292000	48.951052	-433.406215	309.575462	29.677799	
0.293000	48.951019	-433.880095	309.879576	29.694516	
0.294000	48.950989	-434.349196	310.180624	29.711207	
0.295000	48.950961	-434.812781	310.478134	29.727851	
0.296000	48.950935	-435.270147	310.771653	29.744418	
0.297000	48.950912	-435.720628	311.060755	29.760867	
0.298000	48.950891	-436.163593	311.345036	29.777158	
0.299000	48.950872	-436.598454	311.624116	29.793260	
0.300000	48.950856	-437.024655	311.897641	29.809152	
0.301000	48.950843	-437.441683	312.165279	29.824831	
0.302000	48.950831	-437.849061	312.426726	29.840321	
0.303000	48.950822	-438.246349	312.681699	29.855687	
0.304000	48.950816	-438.633147	312.929940	29.871062	
0.305000	48.950811	-439.009089	313.171215	29.886674	
0.306000	48.950809	-439.373846	313.405314	29.902854	
0.307000	48.950808	-439.727125	313.632047	29.919892	
0.308000	48.950810	-440.068664	313.851247	29.937774	
0.309000	48.950813	-440.398237	314.062768	29.956164	
0.310000	48.950818	-440.715644	314.266482	29.974665	
0.311000	48.950825	-441.020721	314.462284	29.992990	
0.312000	48.950833	-441.313327	314.650083	30.010967	
0.313000	48.950843	-441.593351	314.829808	30.028500	
0.314000	48.950854	-441.860706	315.001402	30.045534	
0.315000	48.950866	-442.115328	315.164826	30.062042	
0.316000	48.950879	-442.357178	315.320053	30.078008	
0.317000	48.950894	-442.586236	315.467071	30.093428	
0.318000	48.950909	-442.802501	315.605879	30.108302	
0.319000	48.950925	-443.005994	315.736490	30.122634	
0.320000	48.950942	-443.196748	315.858927	30.136430	
0.321000	48.950959	-443.374818	315.973222	30.149698	
0.322000	48.950978	-443.540270	316.079421	30.162448	
0.323000	48.950996	-443.693187	316.177575	30.174688	
0.324000	48.951016	-443.833666	316.267746	30.186430	
0.325000	48.951036	-443.961817	316.350006	30.197683	
0.326000	48.951057	-444.077763	316.424433	30.208458	
0.327000	48.951078	-444.181638	316.491114	30.218764	
0.328000	48.951100	-444.273593	316.550144	30.228611	
0.329000	48.951122	-444.353788	316.601627	30.238008	
0.330000	48.951145	-444.422397	316.645674	30.246963	
0.331000	48.951168	-444.479605	316.682406	30.255483	
0.332000	48.951192	-444.525612	316.711948	30.263576	
0.333000	48.951217	-444.560629	316.734438	30.271249	
0.334000	48.951242	-444.584882	316.750020	30.278506	
0.335000	48.951268	-444.598609	316.758846	30.285353	
0.336000	48.951295	-444.602061	316.761079	30.291794	
0.337000	48.951323	-444.595504	316.756889	30.297834	
0.338000	48.951351	-444.579217	316.746454	30.303476	
0.339000	48.951380	-444.553493	316.729962	30.308724	
0.340000	48.951409	-444.518637	316.707611	30.313581	
0.341000	48.951439	-444.474968	316.679604	30.318050	
0.342000	48.951470	-444.422819	316.646155	30.322135	
0.343000	48.951502	-444.362534	316.607484	30.325838	
0.344000	48.951534	-444.294468	316.563820	30.329165	
0.345000	48.951567	-444.218988	316.515398	30.332118	
0.346000	48.951600	-444.136469	316.462459	30.334704	
0.347000	48.951633	-444.047296	316.405249	30.336927	
0.348000	48.951667	-443.951857	316.344019	30.338792	
0.349000	48.951700	-443.850550	316.279022	30.340307	
0.350000	48.951734	-443.743773	316.210514	30.341479	
0.351000	48.951767	-443.631926	316.138752	30.342315	
0.352000	48.951801	-443.515407	316.063992	30.342823	
0.353000	48.951834	-443.394613	315.986488	30.343013	
0.354000	48.951866	-443.269933	315.906490	30.342895	
0.355000	48.951897	-443.141750	315.824242	30.342477	
0.356000	48.951928	-443.010433	315.739983	30.341771	
0.357000	48.951957	-442.876343	315.653943	30.340786	
0.358000	48.951985	-442.739819	315.566341	30.339535	
0.359000	48.952012	-442.601188	315.477384	30.338027	
0.360000	48.952037	-442.460751	315.387269	30.336273	
0.361000	48.952060	-442.318789	315.296173	30.334284	
0.362000	48.952082	-442.175558	315.204262	30.332070	
0.363000	48.952102	-442.031286	315.111681	30.329642	
0.364000	48.952119	-441.886172	315.018558	30.327008	
0.365000	48.952134	-441.740386	314.925003	30.324177	
0.366000	48.952148	-441.594064	314.831103	30.321159	
0.367000	48.952159	-441.447313	314.736925	30.317959	
0.368000	48.952167	-441.300203	314.642516	30.314585	
0.369000	48.952174	-441.152775	314.547901	30.311043	
0.370000	48.952178	-441.005032	314.453083	30.307337	
0.371000	48.952180	-440.856947	314.358043	30.303472	
0.372000	48.952179	-440.708459	314.262744	30.299450	
0.373000	48.952177	-440.559477	314.167126	30.295274	
0.374000	48.952173	-440.409878	314.071111	30.290945	
0.375000	48.952167	-440.259511	313.974603	30.286463	
0.376000	48.952159	-440.108198	313.877486	30.281827	
0.377000	48.952150	-439.955738	313.779631	30.277036	
0.378000	48.952139	-439.801904	313.680894	30.272089	
0.379000	48.952127	-439.646451	313.581117	30.266982	
0.380000	48.952114	-439.489117	313.480132	30.261712	
0.381000	48.952100	-439.329623	313.377761	30.256276	
0.382000	48.952086	-439.167679	313.273816	30.250669	
0.383000	48.952071	-439.002986	313.168107	30.244887	
0.384000	48.952056	-438.835239	313.060438	30.238926	
0.385000	48.952041	-438.664129	312.950610	30.232780	
0.386000	48.952025	-438.489345	312.838425	30.226445	
0.387000	48.952010	-438.310580	312.723684	30.219917	
0.388000	48.951996	-438.127531	312.606195	30.213190	
0.389000	48.951982	-437.939902	312.485766	30.206260	
0.390000	48.951969	-437.747407	312.362215	30.199123	
0.391000	48.951957	-437.549771	312.235365	30.191775	
0.392000	48.951945	-437.346735	312.105050	30.184213	
0.393000	48.951935	-437.138054	311.971112	30.176434	
0.394000	48.951926	-436.923502	311.833408	30.168434	
0.395000	48.951919	-436.702873	311.691803	30.160211	
0.396000	48.951912	-436.475979	311.546180	30.151764	
0.397000	48.951908	-436.242657	311.396432	30.143092	
0.398000	48.951904	-436.002767	311.242469	30.134193	
0.399000	48.951903	-435.756191	311.084216	30.125067	
0.400000	48.951903	-435.502838	310.921615	30.115714	
0.401000	48.951904	-435.242640	310.754621	30.106135	
0.402000	48.951907	-434.975557	310.583210	30.096332	
0.403000	48.951912	-434.701571	310.407370	30.086306	
0.404000	48.951919	-434.420695	310.227109	30.076059	
0.405000	48.951927	-434.132964	310.042449	30.065593	
0.406000	48.951937	-433.838439	309.853430	30.054912	
0.407000	48.951948	-433.537208	309.660108	30.044019	
0.408000	48.951961	-433.229381	309.462554	30.032918	
0.409000	48.951975	-432.915094	309.260854	30.021611	
0.410000	48.951991	-432.594505	309.055111	30.010103	
0.411000	48.952008	-432.267795	308.845441	29.998397	
0.412000	48.952026	-431.935167	308.631973	29.986497	
0.413000	48.952046	-431.596844	308.414851	29.974407	
0.414000	48.952066	-431.253068	308.194230	29.962130	
0.415000	48.952088	-430.904100	307.970277	29.949672	
0.416000	48.952111	-430.550216	307.743170	29.937035	
0.417000	48.952134	-430.191711	307.513098	29.924224	
0.418000	48.952159	-429.828891	307.280256	29.911243	
0.419000	48.952184	-429.462076	307.044852	29.898099	
0.420000	48.952210	-429.091597	306.807096	29.884795	
0.421000	48.952236	-428.717795	306.567208	29.871338	
0.422000	48.952263	-428.341019	306.325411	29.857736	
0.423000	48.952289	-427.961624	306.081934	29.843995	
0.424000	48.952316	-427.579971	305.837008	29.830123	
0.425000	48.952344	-427.196423	305.590865	29.816130	
0.426000	48.952371	-426.811346	305.343741	29.802024	
0.427000	48.952398	-426.425104	305.095870	29.787817	
0.428000	48.952425	-426.038062	304.847484	29.773518	
0.429000	48.952451	-425.650579	304.598816	29.759138	
0.430000	48.952477	-425.263013	304.350094	29.744690	
0.431000	48.952503	-424.875712	304.101542	29.730185	
0.432000	48.952528	-424.489021	303.853380	29.715635	
0.433000	48.952552	-424.103271	303.605823	29.701051	
0.434000	48.952575	-423.718787	303.359077	29.686446	
0.435000	48.952598	-423.335881	303.113344	29.671831	
0.436000	48.952620	-422.954854	302.868816	29.657217	
0.437000	48.952641	-422.575992	302.625677	29.642616	
0.438000	48.952661	-422.199568	302.384102	29.628037	
0.439000	48.952680	-421.825840	302.144257	29.613490	
0.440000	48.952697	-421.455052	301.906297	29.598985	
0.441000	48.952714	-421.087429	301.670369	29.584530	
0.442000	48.952730	-420.723182	301.436606	29.570133	
0.443000	48.952745	-420.362507	301.205135	29.555803	
0.444000	48.952758	-420.005580	300.976069	29.541545	
0.445000	48.952771	-419.652562	300.749512	29.527367	
0.446000	48.952782	-419.303599	300.525556	29.513275	
0.447000	48.952793	-418.958820	300.304284	29.499275	
0.448000	48.952802	-418.618338	300.085770	29.485373	
0.449000	48.952811	-418.282250	299.870075	29.471574	
0.450000	48.952818	-417.950641	299.657254	29.457885	
0.451000	48.952825	-417.623581	299.447352	29.444312	
0.452000	48.952831	-417.301125	299.240405	29.430860	
0.453000	48.952836	-416.983318	299.036441	29.417538	
0.454000	48.952841	-416.670193	298.835481	29.404351	
0.455000	48.952845	-416.361773	298.637540	29.391310	
0.456000	48.952848	-416.058070	298.442627	29.378424	
0.457000	48.952851	-415.759088	298.250743	29.365704	
0.458000	48.952854	-415.464826	298.061888	29.353163	
0.459000	48.952856	-415.175272	297.876055	29.340816	
0.460000	48.952858	-414.890412	297.693234	29.328681	
0.461000	48.952860	-414.610227	297.513413	29.316779	
0.462000	48.952861	-414.334693	297.336577	29.305131	
0.463000	48.952863	-414.063785	297.162710	29.293763	
0.464000	48.952864	-413.797475	296.991794	29.282701	
0.465000	48.952866	-413.535733	296.823810	29.271971	
0.466000	48.952867	-413.278532	296.658740	29.261594	
0.467000	48.952869	-413.025843	296.496566	29.251586	
0.468000	48.952871	-412.777638	296.337270	29.241955	
0.469000	48.952873	-412.533891	296.180835	29.232698	
0.470000	48.952875	-412.294579	296.027247	29.223801	
0.471000	48.952877	-412.059680	295.876491	29.215242	
0.472000	48.952880	-411.829175	295.728555	29.206994	
0.473000	48.952882	-411.603049	295.583429	29.199026	
0.474000	48.952885	-411.381286	295.441105	29.191310	
0.475000	48.952889	-411.163879	295.301576	29.183819	
0.476000	48.952892	-410.950819	295.164837	29.176531	
0.477000	48.952896	-410.742103	295.030886	29.169425	
0.478000	48.952900	-410.537728	294.899721	29.162486	
0.479000	48.952904	-410.337695	294.771343	29.155703	
0.480000	48.952908	-410.142006	294.645753	29.149067	
0.481000	48.952912	-409.950667	294.522955	29.142573	
0.482000	48.952917	-409.763682	294.402951	29.136216	
0.483000	48.952921	-409.581058	294.285746	29.129995	
0.484000	48.952926	-409.402800	294.171344	29.123913	
0.485000	48.952930	-409.228916	294.059749	29.117972	
0.486000	48.952934	-409.059410	293.950963	29.112175	
0.487000	48.952938	-408.894285	293.844989	29.106531	
0.488000	48.952943	-408.733543	293.741828	29.101045	
0.489000	48.952946	-408.577183	293.641479	29.095729	
0.490000	48.952950	-408.425199	293.543938	29.090591	
0.491000	48.952953	-408.277583	293.449201	29.085645	
0.492000	48.952957	-408.134322	293.357258	29.080902	
0.493000	48.952959	-407.995396	293.268098	29.076378	
0.494000	48.952962	-407.860781	293.181704	29.072085	
0.495000	48.952964	-407.730447	293.098058	29.068039	
0.496000	48.952965	-407.604357	293.017134	29.064255	
0.497000	48.952966	-407.482467	292.938906	29.060746	
0.498000	48.952967	-407.364724	292.863339	29.057526	
0.499000	48.952967	-407.251069	292.790396	29.054606	
0.500000	48.952966	-407.141434	292.720032	29.051995	
0.501000	48.952965	-407.035745	292.652201	29.049700	
0.502000	48.952964	-406.933916	292.586846	29.047727	
0.503000	48.952962	-406.835856	292.523910	29.046075	
0.504000	48.952959	-406.741462	292.463327	29.044744	
0.505000	48.952956	-406.650627	292.405027	29.043729	
0.506000	48.952952	-406.563232	292.348935	29.043023	
0.507000	48.952948	-406.479151	292.294969	29.042616	
0.508000	48.952944	-406.398250	292.243045	29.042496	
0.509000	48.952939	-406.320389	292.193070	29.042651	
0.510000	48.952933	-406.245417	292.144950	29.043064	
0.511000	48.952927	-406.173180	292.098585	29.043721	
0.512000	48.952921	-406.103516	292.053870	29.044605	
0.513000	48.952914	-406.036255	292.010699	29.045698	
0.514000	48.952907	-405.971225	291.968958	29.046984	
0.515000	48.952900	-405.908246	291.928534	29.048445	
0.516000	48.952893	-405.847135	291.889308	29.050063	
0.517000	48.952885	-405.787705	291.851161	29.051820	
0.518000	48.952877	-405.729765	291.813970	29.053701	
0.519000	48.952869	-405.673122	291.777612	29.055687	
0.520000	48.952861	-405.617580	291.741960	29.057761	
0.521000	48.952853	-405.562944	291.706889	29.059907	
0.522000	48.952845	-405.509014	291.672272	29.062109	
0.523000	48.952837	-405.455594	291.637982	29.064351	
0.524000	48.952829	-405.402485	291.603892	29.066618	
0.525000	48.952821	-405.349491	291.569875	29.068894	
0.526000	48.952813	-405.296416	291.535807	29.071167	
0.527000	48.952806	-405.243069	291.501564	29.073421	
0.528000	48.952798	-405.189256	291.467023	29.075644	
0.529000	48.952791	-405.134792	291.432063	29.077823	
0.530000	48.952784	-405.079492	291.396567	29.079946	
0.531000	48.952778	-405.023176	291.360419	29.082002	
0.532000	48.952771	-404.965666	291.323506	29.083980	
0.533000	48.952765	-404.906793	291.285717	29.085870	
0.534000	48.952760	-404.846389	291.246947	29.087662	
0.535000	48.952754	-404.784294	291.207091	29.089347	
0.536000	48.952749	-404.720351	291.166049	29.090916	
0.537000	48.952745	-404.654411	291.123726	29.092363	
0.538000	48.952741	-404.586329	291.080028	29.093678	
0.539000	48.952737	-404.515967	291.034868	29.094856	
0.540000	48.952733	-404.443193	290.988160	29.095891	
0.541000	48.952730	-404.367882	290.939823	29.096776	
0.542000	48.952728	-404.289914	290.889782	29.097505	
0.543000	48.952725	-404.209176	290.837963	29.098075	
0.544000	48.952723	-404.125562	290.784298	29.098480	
0.545000	48.952722	-404.038970	290.728723	29.098716	
0.546000	48.952721	-403.949307	290.671177	29.098780	
0.547000	48.952720	-403.856484	290.611603	29.098668	
0.548000	48.952719	-403.760420	290.549949	29.098377	
0.549000	48.952719	-403.661038	290.486166	29.097904	
0.550000	48.952719	-403.558269	290.420209	29.097248	
0.551000	48.952720	-403.452048	290.352038	29.096406	
0.552000	48.952721	-403.342317	290.281612	29.095377	
0.553000	48.952722	-403.229020	290.208900	29.094159	
0.554000	48.952723	-403.112111	290.133869	29.092750	
0.555000	48.952725	-402.991546	290.056492	29.091151	
0.556000	48.952727	-402.867286	289.976743	29.089361	
0.557000	48.952729	-402.739298	289.894602	29.087379	
0.558000	48.952732	-402.607552	289.810049	29.085205	
0.559000	48.952734	-402.472023	289.723069	29.082840	
0.560000	48.952737	-402.332689	289.633647	29.080284	
0.561000	48.952740	-402.189535	289.541773	29.077537	
0.562000	48.952743	-402.042545	289.447437	29.074601	
0.563000	48.952746	-401.891709	289.350633	29.071477	
0.564000	48.952750	-401.737021	289.251357	29.068167	
0.565000	48.952753	-401.578476	289.149606	29.064671	
0.566000	48.952757	-401.416073	289.045378	29.060993	
0.567000	48.952761	-401.249814	288.938676	29.057133	
0.568000	48.952765	-401.079702	288.829501	29.053095	
0.569000	48.952769	-400.905744	288.717858	29.048882	
0.570000	48.952773	-400.727947	288.603751	29.044496	
0.571000	48.952777	-400.546324	288.487188	29.039941	
0.572000	48.952781	-400.360884	288.368177	29.035221	
0.573000	48.952785	-400.171643	288.246725	29.030338	
0.574000	48.952789	-399.978616	288.122843	29.025299	
0.575000	48.952793	-399.781818	287.996542	29.020108	
0.576000	48.952798	-399.581270	287.867833	29.014770	
0.577000	48.952802	-399.376989	287.736729	29.009290	
0.578000	48.952806	-399.168996	287.603242	29.003675	
0.579000	48.952810	-398.957312	287.467387	28.997931	
0.580000	48.952814	-398.741959	287.329177	28.992065	
0.581000	48.952819	-398.522961	287.188627	28.986084	
0.582000	48.952823	-398.300341	287.045753	28.979995	
0.583000	48.952827	-398.074124	286.900570	28.973807	
0.584000	48.952831	-397.844335	286.753095	28.967526	
0.585000	48.952835	-397.610999	286.603343	28.961159	
0.586000	48.952839	-397.374142	286.451332	28.954713	
0.587000	48.952843	-397.133793	286.297079	28.948192	
0.588000	48.952847	-396.889978	286.140602	28.941601	
0.589000	48.952851	-396.642725	285.981918	28.934943	
0.590000	48.952855	-396.392063	285.821046	28.928218	
0.591000	48.952859	-396.138020	285.658005	28.921425	
0.592000	48.952863	-395.880628	285.492814	28.914562	
0.593000	48.952867	-395.619916	285.325493	28.907624	
0.594000	48.952871	-395.355915	285.156060	28.900608	
0.595000	48.952875	-395.088658	284.984538	28.893506	
0.596000	48.952879	-394.818177	284.810947	28.886312	
0.597000	48.952883	-394.544505	284.635307	28.879019	
0.598000	48.952887	-394.267678	284.457643	28.871621	
0.599000	48.952891	-393.987730	284.277976	28.864112	
0.600000	48.952895	-393.704698	284.096330	28.856485	
0.601000	48.952900	-393.418621	283.912729	28.848735	
0.602000	48.952904	-393.129537	283.727198	28.840856	
0.603000	48.952908	-392.837487	283.539764	28.832845	
0.604000	48.952912	-392.542513	283.350453	28.824697	
0.605000	48.952916	-392.244658	283.159294	28.816409	
0.606000	48.952921	-391.943968	282.966315	28.807978	
0.607000	48.952925	-391.640490	282.771546	28.799402	
0.608000	48.952930	-391.334272	282.575019	28.790680	
0.609000	48.952935	-391.025365	282.376767	28.781810	
0.610000	48.952939	-390.713823	282.176823	28.772792	
0.611000	48.952944	-390.399701	281.975224	28.763625	
0.612000	48.952949	-390.083055	281.772005	28.754310	
0.613000	48.952955	-389.763947	281.567205	28.744848	
0.614000	48.952960	-389.442437	281.360864	28.735240	
0.615000	48.952965	-389.118590	281.153024	28.725489	
0.616000	48.952971	-388.792474	280.943727	28.715596	
0.617000	48.952977	-388.464158	280.733019	28.705566	
0.618000	48.952982	-388.133715	280.520945	28.695402	
0.619000	48.952988	-387.801219	280.307554	28.685108	
0.620000	48.952995	-387.466749	280.092896	28.674689	
0.621000	48.953001	-387.130383	279.877021	28.664150	
0.622000	48.953007	-386.792205	279.659984	28.653497	
0.623000	48.953014	-386.452300	279.441838	28.642736	
0.624000	48.953021	-386.110756	279.222640	28.631873	
0.625000	48.953028	-385.767662	279.002448	28.620915	
0.626000	48.953035	-385.423112	278.781322	28.609869	
0.627000	48.953042	-385.077200	278.559321	28.598740	
0.628000	48.953049	-384.730022	278.336507	28.587535	
0.629000	48.953056	-384.381676	278.112945	28.576260	
0.630000	48.953064	-384.032263	277.888698	28.564920	
0.631000	48.953071	-383.681885	277.663831	28.553521	
0.632000	48.953079	-383.330644	277.438410	28.542066	
0.633000	48.953086	-382.978643	277.212502	28.530561	
0.634000	48.953094	-382.625989	276.986174	28.519009	
0.635000	48.953101	-382.272784	276.759494	28.507416	
0.636000	48.953109	-381.919136	276.532528	28.495786	
0.637000	48.953117	-381.565148	276.305344	28.484123	
0.638000	48.953124	-381.210926	276.078010	28.472433	
0.639000	48.953132	-380.856572	275.850592	28.460721	
0.640000	48.953139	-380.502191	275.623156	28.448993	
0.641000	48.953146	-380.147882	275.395766	28.437256	
0.642000	48.953153	-379.793746	275.168487	28.425517	
0.643000	48.953160	-379.439878	274.941380	28.413783	
0.644000	48.953167	-379.086375	274.714507	28.402064	
0.645000	48.953173	-378.733326	274.487926	28.390368	
0.646000	48.953179	-378.380820	274.261693	28.378704	
0.647000	48.953185	-378.028943	274.035862	28.367082	
0.648000	48.953191	-377.677773	273.810486	28.355513	
0.649000	48.953196	-377.327388	273.585614	28.344006	
0.650000	48.953201	-376.977858	273.361290	28.332572	
0.651000	48.953206	-376.629251	273.137557	28.321220	
0.652000	48.953210	-376.281627	272.914456	28.309961	
0.653000	48.953214	-375.935042	272.692022	28.298803	
0.654000	48.953217	-375.589547	272.470286	28.287754	
0.655000	48.953221	-375.245184	272.249277	28.276820	
0.656000	48.953223	-374.901994	272.029020	28.266008	
0.657000	48.953225	-374.560006	271.809535	28.255320	
0.658000	48.953227	-374.219247	271.590838	28.244759	
0.659000	48.953229	-373.879736	271.372941	28.234324	
0.660000	48.953230	-373.541485	271.155854	28.224016	
0.661000	48.953230	-373.204501	270.939579	28.213830	
0.662000	48.953230	-372.868783	270.724116	28.203762	
0.663000	48.953230	-372.534326	270.509462	28.193807	
0.664000	48.953229	-372.201115	270.295608	28.183959	
0.665000	48.953228	-371.869134	270.082543	28.174210	
0.666000	48.953227	-371.538356	269.870250	28.164553	
0.667000	48.953225	-371.208753	269.658710	28.154980	
0.668000	48.953223	-370.880287	269.447901	28.145483	
0.669000	48.953221	-370.552920	269.237796	28.136054	
0.670000	48.953218	-370.226604	269.028365	28.126686	
0.671000	48.953215	-369.901290	268.819578	28.117370	
0.672000	48.953212	-369.576924	268.611399	28.108100	
0.673000	48.953208	-369.253448	268.403791	28.098868	
0.674000	48.953205	-368.930801	268.196715	28.089667	
0.675000	48.953201	-368.608919	267.990129	28.080492	
0.676000	48.953197	-368.287736	267.783992	28.071336	
0.677000	48.953193	-367.967182	267.578259	28.062193	
0.678000	48.953189	-367.647188	267.372885	28.053059	
0.679000	48.953185	-367.327682	267.167825	28.043927	
0.680000	48.953181	-367.008593	266.963032	28.034793	
0.681000	48.953177	-366.689849	266.758460	28.025652	
0.682000	48.953173	-366.371377	266.554063	28.016501	
0.683000	48.953169	-366.053107	266.349796	28.007336	
0.684000	48.953165	-365.734969	266.145613	27.998152	
0.685000	48.953161	-365.416893	265.941471	27.988946	
0.686000	48.953158	-365.098814	265.737326	27.979715	
0.687000	48.953154	-364.780667	265.533138	27.970456	
0.688000	48.953151	-364.462390	265.328867	27.961167	
0.689000	48.953148	-364.143925	265.124475	27.951845	
0.690000	48.953146	-363.825217	264.919928	27.942488	
0.691000	48.953143	-363.506214	264.715191	27.933094	
0.692000	48.953141	-363.186868	264.510235	27.923662	
0.693000	48.953139	-362.867137	264.305031	27.914189	
0.694000	48.953138	-362.546980	264.099555	27.904675	
0.695000	48.953137	-362.226364	263.893783	27.895118	
0.696000	48.953136	-361.905259	263.687698	27.885519	
0.697000	48.953136	-361.583639	263.481283	27.875875	
0.698000	48.953136	-361.261485	263.274526	27.866187	
0.699000	48.953136	-360.938781	263.067416	27.856455	
0.700000	48.953136	-360.615519	262.859947	27.846678	
0.701000	48.953137	-360.291692	262.652117	27.836857	
0.702000	48.953139	-359.967301	262.443925	27.826991	
0.703000	48.953140	-359.642352	262.235374	27.817082	
0.704000	48.953142	-359.316855	262.026472	27.807130	
0.705000	48.953144	-358.990825	261.817228	27.797135	
0.706000	48.953147	-358.664280	261.607655	27.787099	
0.707000	48.953150	-358.337247	261.397768	27.777023	
0.708000	48.953153	-358.009754	261.187586	27.766906	
0.709000	48.953157	-357.681832	260.977129	27.756752	
0.710000	48.953160	-357.353521	260.766422	27.746560	
0.711000	48.953164	-357.024860	260.555491	27.736333	
0.712000	48.953168	-356.695894	260.344364	27.726071	
0.713000	48.953173	-356.366670	260.133072	27.715776	
0.714000	48.953177	-356.037240	259.921648	27.705450	
0.715000	48.953182	-355.707656	259.710125	27.695093	
0.716000	48.953187	-355.377975	259.498540	27.684708	
0.717000	48.953192	-355.048256	259.286930	27.674296	
0.718000	48.953197	-354.718557	259.075333	27.663858	
0.719000	48.953203	-354.388940	258.863790	27.653397	
0.720000	48.953208	-354.059470	258.652340	27.642913	
0.721000	48.953213	-353.730208	258.441025	27.632408	
0.722000	48.953219	-353.401221	258.229885	27.621883	
0.723000	48.953224	-353.072573	258.018963	27.611341	
0.724000	48.953229	-352.744330	257.808301	27.600782	
0.725000	48.953235	-352.416556	257.597940	27.590208	
0.726000	48.953240	-352.089315	257.387922	27.579619	
0.727000	48.953245	-351.762672	257.178286	27.569019	
0.728000	48.953250	-351.436690	256.969075	27.558406	
0.729000	48.953255	-351.111429	256.760327	27.547784	
0.730000	48.953260	-350.786950	256.552081	27.537153	
0.731000	48.953265	-350.463312	256.344373	27.526513	
0.732000	48.953270	-350.140570	256.137242	27.515867	
0.733000	48.953274	-349.818780	255.930721	27.505214	
0.734000	48.953279	-349.497993	255.724843	27.494556	
0.735000	48.953283	-349.178258	255.519641	27.483894	
0.736000	48.953287	-348.859624	255.315145	27.473229	
0.737000	48.953291	-348.542134	255.111384	27.462561	
0.738000	48.953294	-348.225831	254.908383	27.451890	
0.739000	48.953298	-347.910751	254.706169	27.441219	
0.740000	48.953301	-347.596932	254.504762	27.430546	
0.741000	48.953304	-347.284405	254.304185	27.419873	
0.742000	48.953307	-346.973200	254.104457	27.409201	
0.743000	48.953309	-346.663342	253.905593	27.398528	
0.744000	48.953312	-346.354855	253.707608	27.387857	
0.745000	48.953314	-346.047758	253.510516	27.377187	
0.746000	48.953316	-345.742068	253.314326	27.366519	
0.747000	48.953317	-345.437797	253.119046	27.355853	
0.748000	48.953319	-345.134955	252.924684	27.345189	
0.749000	48.953320	-344.833548	252.731243	27.334528	
0.750000	48.953321	-344.533580	252.538725	27.323869	
0.751000	48.953322	-344.235052	252.347131	27.313214	
0.752000	48.953323	-343.937960	252.156459	27.302561	
0.753000	48.953323	-343.642298	251.966704	27.291911	
0.754000	48.953323	-343.348058	251.777862	27.281265	
0.755000	48.953323	-343.055227	251.589924	27.270623	
0.756000	48.953323	-342.763792	251.402882	27.259984	
0.757000	48.953323	-342.473735	251.216724	27.249349	
0.758000	48.953323	-342.185036	251.031437	27.238718	
0.759000	48.953322	-341.897673	250.847008	27.228092	
0.760000	48.953321	-341.611620	250.663420	27.217470	
0.761000	48.953320	-341.326852	250.480656	27.206853	
0.762000	48.953319	-341.043337	250.298696	27.196241	
0.763000	48.953318	-340.761046	250.117522	27.185636	
0.764000	48.953317	-340.479944	249.937110	27.175036	
0.765000	48.953315	-340.199995	249.757439	27.164444	
0.766000	48.953314	-339.921164	249.578485	27.153860	
0.767000	48.953312	-339.643409	249.400222	27.143286	
0.768000	48.953310	-339.366693	249.222625	27.132724	
0.769000	48.953308	-339.090971	249.045666	27.122176	
0.770000	48.953306	-338.816201	248.869319	27.111644	
0.771000	48.953304	-338.542338	248.693553	27.101133	
0.772000	48.953302	-338.269337	248.518340	27.090648	
0.773000	48.953300	-337.997151	248.343651	27.080196	
0.774000	48.953298	-337.725732	248.169453	27.069785	
0.775000	48.953295	-337.455032	247.995718	27.059425	
0.776000	48.953293	-337.185002	247.822412	27.049130	
0.777000	48.953291	-336.915592	247.649504	27.038916	
0.778000	48.953288	-336.646753	247.476962	27.028801	
0.779000	48.953286	-336.378433	247.304754	27.018800	
0.780000	48.953283	-336.110583	247.132847	27.008929	
0.781000	48.953281	-335.843151	246.961208	26.999194	
0.782000	48.953279	-335.576088	246.789806	26.989595	
0.783000	48.953276	-335.309342	246.618608	26.980118	
0.784000	48.953274	-335.042863	246.447580	26.970746	
0.785000	48.953271	-334.776601	246.276693	26.961458	
0.786000	48.953269	-334.510506	246.105913	26.952231	
0.787000	48.953267	-334.244530	245.935208	26.943044	
0.788000	48.953264	-333.978624	245.764549	26.933882	
0.789000	48.953262	-333.712740	245.593905	26.924729	
0.790000	48.953260	-333.446832	245.423244	26.915574	
0.791000	48.953258	-333.180854	245.252539	26.906407	
0.792000	48.953256	-332.914761	245.081759	26.897220	
0.793000	48.953254	-332.648508	244.910878	26.888007	
0.794000	48.953252	-332.382055	244.739868	26.878763	
0.795000	48.953250	-332.115359	244.568702	26.869482	
0.796000	48.953248	-331.848380	244.397355	26.860162	
0.797000	48.953247	-331.581080	244.225802	26.850798	
0.798000	48.953245	-331.313423	244.054019	26.841388	
0.799000	48.953244	-331.045373	243.881984	26.831930	
0.800000	48.953242	-330.776895	243.709675	26.822420	
0.801000	48.953241	-330.507959	243.537072	26.812857	
0.802000	48.953240	-330.238535	243.364155	26.803239	
0.803000	48.953239	-329.968592	243.190907	26.793564	
0.804000	48.953238	-329.698107	243.017309	26.783832	
0.805000	48.953237	-329.427052	242.843347	26.774040	
0.806000	48.953236	-329.155407	242.669005	26.764188	
0.807000	48.953236	-328.883150	242.494271	26.754275	
0.808000	48.953235	-328.610263	242.319133	26.744300	
0.809000	48.953235	-328.336729	242.143579	26.734263	
0.810000	48.953235	-328.062533	241.967601	26.724163	
0.811000	48.953235	-327.787663	241.791190	26.714000	
0.812000	48.953235	-327.512109	241.614340	26.703775	
0.813000	48.953235	-327.235861	241.437045	26.693488	
0.814000	48.953235	-326.958914	241.259302	26.683139	
0.815000	48.953236	-326.681263	241.081106	26.672730	
0.816000	48.953236	-326.402905	240.902458	26.662263	
0.817000	48.953237	-326.123841	240.723355	26.651738	
0.818000	48.953238	-325.844072	240.543801	26.641159	
0.819000	48.953239	-325.563601	240.363796	26.630529	
0.820000	48.953240	-325.282434	240.183344	26.619852	
0.821000	48.953241	-325.000577	240.002450	26.609131	
0.822000	48.953242	-324.718041	239.821120	26.598372	
0.823000	48.953244	-324.434835	239.639360	26.587583	
0.824000	48.953245	-324.150972	239.457179	26.576771	
0.825000	48.953246	-323.866467	239.274585	26.565944	
0.826000	48.953248	-323.581334	239.091589	26.555113	
0.827000	48.953250	-323.295590	238.908201	26.544290	
0.828000	48.953252	-323.009255	238.724433	26.533489	
0.829000	48.953253	-322.722348	238.540298	26.522725	
0.830000	48.953255	-322.434889	238.355809	26.512012	
0.831000	48.953257	-322.146902	238.170981	26.501368	
0.832000	48.953259	-321.858409	237.985828	26.490808	
0.833000	48.953261	-321.569434	237.800366	26.480346	
0.834000	48.953263	-321.280002	237.614611	26.469995	
0.835000	48.953266	-320.990139	237.428579	26.459762	
0.836000	48.953268	-320.699872	237.242288	26.449651	
0.837000	48.953270	-320.409228	237.055755	26.439661	
0.838000	48.953272	-320.118234	236.868997	26.429788	
0.839000	48.953274	-319.826918	236.682033	26.420023	
0.840000	48.953276	-319.535309	236.494880	26.410354	
0.841000	48.953279	-319.243434	236.307557	26.400769	
0.842000	48.953281	-318.951322	236.120082	26.391254	
0.843000	48.953283	-318.659001	235.932473	26.381796	
0.844000	48.953285	-318.366501	235.744748	26.372381	
0.845000	48.953287	-318.073848	235.556926	26.362999	
0.846000	48.953289	-317.781072	235.369024	26.353638	
0.847000	48.953291	-317.488198	235.181060	26.344290	
0.848000	48.953293	-317.195254	234.993051	26.334946	
0.849000	48.953295	-316.902267	234.805014	26.325599	
0.850000	48.953297	-316.609262	234.616965	26.316243	
0.851000	48.953299	-316.316264	234.428921	26.306873	
0.852000	48.953301	-316.023297	234.240897	26.297484	
0.853000	48.953303	-315.730386	234.052909	26.288072	
0.854000	48.953304	-315.437551	233.864969	26.278635	
0.855000	48.953306	-315.144815	233.677093	26.269169	
0.856000	48.953307	-314.852198	233.489294	26.259673	
0.857000	48.953308	-314.559720	233.301583	26.250145	
0.858000	48.953310	-314.267399	233.113973	26.240583	
0.859000	48.953311	-313.975253	232.926475	26.230985	
0.860000	48.953312	-313.683297	232.739099	26.221352	
0.861000	48.953313	-313.391546	232.551855	26.211683	
0.862000	48.953314	-313.100015	232.364752	26.201976	
0.863000	48.953315	-312.808716	232.177798	26.192232	
0.864000	48.953316	-312.517661	231.991000	26.182451	
0.865000	48.953316	-312.226860	231.804365	26.172632	
0.866000	48.953317	-311.936324	231.617900	26.162776	
0.867000	48.953318	-311.646059	231.431610	26.152883	
0.868000	48.953318	-311.356075	231.245499	26.142954	
0.869000	48.953319	-311.066377	231.059572	26.132990	
0.870000	48.953319	-310.776971	230.873832	26.122990	
0.871000	48.953319	-310.487862	230.688283	26.112955	
0.872000	48.953319	-310.199054	230.502928	26.102887	
0.873000	48.953320	-309.910551	230.317767	26.092786	
0.874000	48.953320	-309.622356	230.132804	26.082653	
0.875000	48.953320	-309.334470	229.948040	26.072490	
0.876000	48.953320	-309.046896	229.763476	26.062296	
0.877000	48.953320	-308.759636	229.579114	26.052074	
0.878000	48.953320	-308.472692	229.394954	26.041823	
0.879000	48.953320	-308.186065	229.210997	26.031546	
0.880000	48.953321	-307.899756	229.027245	26.021244	
0.881000	48.953321	-307.613768	228.843699	26.010917	
0.882000	48.953321	-307.328104	228.660361	26.000567	
0.883000	48.953321	-307.042764	228.477231	25.990194	
0.884000	48.953321	-306.757754	228.294312	25.979799	
0.885000	48.953321	-306.473075	228.111606	25.969385	
0.886000	48.953322	-306.188734	227.929118	25.958950	
0.887000	48.953322	-305.904737	227.746849	25.948497	
0.888000	48.953323	-305.621088	227.564804	25.938026	
0.889000	48.953323	-305.337797	227.382989	25.927537	
0.890000	48.953324	-305.054873	227.201410	25.917032	
0.891000	48.953325	-304.772326	227.020072	25.906511	
0.892000	48.953326	-304.490168	226.838985	25.895974	
0.893000	48.953327	-304.208413	226.658156	25.885422	
0.894000	48.953328	-303.927077	226.477596	25.874855	
0.895000	48.953329	-303.646176	226.297315	25.864273	
0.896000	48.953330	-303.365730	226.117327	25.853678	
0.897000	48.953332	-303.085760	225.937644	25.843069	
0.898000	48.953333	-302.806288	225.758281	25.832446	
0.899000	48.953335	-302.527341	225.579255	25.821810	
0.900000	48.953337	-302.248945	225.400582	25.811161	
0.901000	48.953339	-301.971130	225.222283	25.800500	
0.902000	48.953341	-301.693927	225.044376	25.789827	
0.903000	48.953344	-301.417371	224.866885	25.779143	
0.904000	48.953346	-301.141496	224.689831	25.768449	
0.905000	48.953349	-300.866341	224.513239	25.757745	
0.906000	48.953352	-300.591947	224.337135	25.747033	
0.907000	48.953355	-300.318355	224.161547	25.736314	
0.908000	48.953358	-300.045610	223.986502	25.725589	
0.909000	48.953361	-299.773758	223.812030	25.714861	
0.910000	48.953365	-299.502847	223.638162	25.704131	
0.911000	48.953368	-299.232927	223.464930	25.693402	
0.912000	48.953372	-298.964049	223.292368	25.682675	
0.913000	48.953375	-298.696267	223.120509	25.671955	
0.914000	48.953379	-298.429635	222.949387	25.661243	
0.915000	48.953383	-298.164208	222.779039	25.650542	
0.916000	48.953387	-297.900043	222.609502	25.639857	
0.917000	48.953391	-297.637199	222.440812	25.629190	
0.918000	48.953395	-297.375732	222.273006	25.618546	
0.919000	48.953399	-297.115702	222.106122	25.607929	
0.920000	48.953403	-296.857169	221.940199	25.597341	
0.921000	48.953407	-296.600190	221.775273	25.586789	
0.922000	48.953411	-296.344826	221.611384	25.576275	
0.923000	48.953415	-296.091136	221.448569	25.565803	
0.924000	48.953419	-295.839176	221.286864	25.555379	
0.925000	48.953423	-295.589005	221.126308	25.545006	
0.926000	48.953427	-295.340680	220.966936	25.534688	
0.927000	48.953431	-295.094254	220.808783	25.524429	
0.928000	48.953435	-294.849781	220.651883	25.514232	
0.929000	48.953438	-294.607314	220.496271	25.504102	
0.930000	48.953442	-294.366901	220.341977	25.494042	
0.931000	48.953445	-294.128591	220.189032	25.484054	
0.932000	48.953448	-293.892428	220.037465	25.474141	
0.933000	48.953451	-293.658454	219.887304	25.464306	
0.934000	48.953454	-293.426709	219.738573	25.454552	
0.935000	48.953457	-293.197230	219.591295	25.444881	
0.936000	48.953459	-292.970050	219.445493	25.435294	
0.937000	48.953461	-292.745197	219.301185	25.425793	
0.938000	48.953463	-292.522700	219.158387	25.416381	
0.939000	48.953465	-292.302578	219.017115	25.407059	
0.940000	48.953466	-292.084852	218.877380	25.397828	
0.941000	48.953467	-291.869536	218.739192	25.388689	
0.942000	48.953468	-291.656640	218.602556	25.379646	
0.943000	48.953469	-291.446171	218.467478	25.370698	
0.944000	48.953469	-291.238130	218.333958	25.361848	
0.945000	48.953469	-291.032515	218.201996	25.353099	
0.946000	48.953469	-290.829321	218.071586	25.344451	
0.947000	48.953468	-290.628536	217.942722	25.335909	
0.948000	48.953467	-290.430145	217.815395	25.327473	
0.949000	48.953466	-290.234130	217.689592	25.319148	
0.950000	48.953465	-290.040466	217.565299	25.310936	
0.951000	48.953464	-289.849126	217.442496	25.302841	
0.952000	48.953462	-289.660078	217.321165	25.294866	
0.953000	48.953460	-289.473288	217.201282	25.287015	
0.954000	48.953457	-289.288715	217.082822	25.279291	
0.955000	48.953455	-289.106317	216.965758	25.271697	
0.956000	48.953452	-288.926046	216.850059	25.264237	
0.957000	48.953449	-288.747854	216.735694	25.256913	
0.958000	48.953446	-288.571686	216.622628	25.249726	
0.959000	48.953443	-288.397486	216.510825	25.242678	
0.960000	48.953440	-288.225195	216.400247	25.235769	
0.961000	48.953436	-288.054751	216.290854	25.228998	
0.962000	48.953432	-287.886090	216.182605	25.222361	
0.963000	48.953428	-287.719145	216.075458	25.215855	
0.964000	48.953424	-287.553846	215.969367	25.209476	
0.965000	48.953420	-287.390125	215.864289	25.203216	
0.966000	48.953416	-287.227907	215.760175	25.197068	
0.967000	48.953412	-287.067119	215.656979	25.191024	
0.968000	48.953407	-286.907686	215.554653	25.185075	
0.969000	48.953403	-286.749532	215.453147	25.179211	
0.970000	48.953399	-286.592580	215.352413	25.173422	
0.971000	48.953394	-286.436751	215.252400	25.167699	
0.972000	48.953390	-286.281969	215.153058	25.162030	
0.973000	48.953385	-286.128155	215.054338	25.156406	
0.974000	48.953381	-285.975229	214.956188	25.150818	
0.975000	48.953376	-285.823114	214.858558	25.145256	
0.976000	48.953372	-285.671731	214.761398	25.139712	
0.977000	48.953368	-285.521004	214.664659	25.134177	
0.978000	48.953363	-285.370853	214.568290	25.128644	
0.979000	48.953359	-285.221204	214.472243	25.123105	
0.980000	48.953355	-285.071980	214.376468	25.117554	
0.981000	48.953351	-284.923106	214.280919	25.111985	
0.982000	48.953347	-284.774510	214.185548	25.106392	
0.983000	48.953343	-284.626118	214.090308	25.100770	
0.984000	48.953339	-284.477859	213.995153	25.095114	
0.985000	48.953335	-284.329664	213.900040	25.089421	
0.986000	48.953332	-284.181464	213.804923	25.083686	
0.987000	48.953328	-284.033193	213.709761	25.077906	
0.988000	48.953325	-283.884785	213.614511	25.072077	
0.989000	48.953321	-283.736177	213.519132	25.066197	
0.990000	48.953318	-283.587306	213.423586	25.060263	
0.991000	48.953315	-283.438113	213.327832	25.054274	
0.992000	48.953312	-283.288539	213.231834	25.048226	
0.993000	48.953309	-283.138527	213.135555	25.042118	
0.994000	48.953307	-282.988023	213.038960	25.035948	
0.995000	48.953304	-282.836973	212.942015	25.029715	
0.996000	48.953301	-282.685326	212.844687	25.023418	
0.997000	48.953299	-282.533034	212.746944	25.017055	
0.998000	48.953297	-282.380047	212.648757	25.010625	
0.999000	48.953295	-282.226322	212.550095	25.004128	
1.000000	48.953293	-282.071812	212.450930	24.997563	
1.001000	48.953291	-281.916477	212.351235	24.990929	
1.002000	48.953289	-281.760277	212.250985	24.984225	
1.003000	48.953287	-281.603171	212.150154	24.977451	
1.004000	48.953285	-281.445124	212.048718	24.970607	
1.005000	48.953284	-281.286100	211.946656	24.963692	
1.006000	48.953282	-281.126066	211.843946	24.956706	
1.007000	48.953281	-280.964989	211.740566	24.949650	
1.008000	48.953280	-280.802840	211.636499	24.942521	
1.009000	48.953279	-280.639590	211.531725	24.935322	
1.010000	48.953278	-280.475212	211.426227	24.928051	
1.011000	48.953277	-280.309679	211.319988	24.920709	
1.012000	48.953276	-280.142969	211.212993	24.913295	
1.013000	48.953275	-279.975059	211.105228	24.905810	
1.014000	48.953274	-279.805927	210.996679	24.898254	
1.015000	48.953274	-279.635553	210.887333	24.890627	
1.016000	48.953273	-279.463919	210.777179	24.882929	
1.017000	48.953272	-279.291009	210.666206	24.875160	
1.018000	48.953272	-279.116806	210.554402	24.867321	
1.019000	48.953272	-278.941296	210.441760	24.859412	
1.020000	48.953271	-278.764466	210.328271	24.851433	
1.021000	48.953271	-278.586304	210.213927	24.843384	
1.022000	48.953271	-278.406799	210.098721	24.835266	
1.023000	48.953271	-278.225941	209.982647	24.827078	
1.024000	48.953271	-278.043723	209.865700	24.818822	
1.025000	48.953271	-277.860136	209.747875	24.810498	
1.026000	48.953271	-277.675176	209.629168	24.802106	
1.027000	48.953271	-277.488836	209.509575	24.793646	
1.028000	48.953271	-277.301113	209.389095	24.785119	
1.029000	48.953272	-277.112003	209.267726	24.776526	
1.030000	48.953272	-276.921506	209.145465	24.767866	
1.031000	48.953272	-276.729620	209.022313	24.759140	
1.032000	48.953273	-276.536344	208.898270	24.750349	
1.033000	48.953273	-276.341682	208.773336	24.741493	
1.034000	48.953274	-276.145633	208.647513	24.732573	
1.035000	48.953274	-275.948203	208.520803	24.723589	
1.036000	48.953275	-275.749393	208.393209	24.714542	
1.037000	48.953275	-275.549211	208.264732	24.705433	
1.038000	48.953276	-275.347661	208.135379	24.696261	
1.039000	48.953277	-275.144750	208.005152	24.687028	
1.040000	48.953278	-274.940486	207.874056	24.677734	
1.041000	48.953278	-274.734878	207.742098	24.668380	
1.042000	48.953279	-274.527935	207.609283	24.658967	
1.043000	48.953280	-274.319668	207.475619	24.649495	
1.044000	48.953281	-274.110088	207.341111	24.639965	
1.045000	48.953282	-273.899207	207.205769	24.630379	
1.046000	48.953283	-273.687038	207.069601	24.620735	
1.047000	48.953284	-273.473596	206.932615	24.611037	
1.048000	48.953286	-273.258895	206.794821	24.601283	
1.049000	48.953287	-273.042951	206.656229	24.591476	
1.050000	48.953288	-272.825780	206.516850	24.581616	
1.051000	48.953289	-272.607399	206.376695	24.571704	
1.052000	48.953291	-272.387828	206.235776	24.561741	
1.053000	48.953292	-272.167085	206.094105	24.551729	
1.054000	48.953293	-271.945190	205.951694	24.541667	
1.055000	48.953295	-271.722163	205.808557	24.531557	
1.056000	48.953296	-271.498027	205.664708	24.521400	
1.057000	48.953298	-271.272804	205.520162	24.511198	
1.058000	48.953299	-271.046517	205.374933	24.500951	
1.059000	48.953301	-270.819191	205.229036	24.490661	
1.060000	48.953303	-270.590850	205.082489	24.480328	
1.061000	48.953305	-270.361520	204.935307	24.469954	
1.062000	48.953306	-270.131228	204.787507	24.459540	
1.063000	48.953308	-269.900001	204.639107	24.449088	
1.064000	48.953310	-269.667867	204.490126	24.438599	
1.065000	48.953312	-269.434856	204.340581	24.428073	
1.066000	48.953314	-269.200998	204.190493	24.417513	
1.067000	48.953316	-268.966323	204.039881	24.406919	
1.068000	48.953318	-268.730863	203.888764	24.396294	
1.069000	48.953320	-268.494650	203.737165	24.385638	
1.070000	48.953322	-268.257718	203.585104	24.374953	
1.071000	48.953324	-268.020100	203.432603	24.364240	
1.072000	48.953326	-267.781832	203.279684	24.353501	
1.073000	48.953329	-267.542949	203.126371	24.342737	
1.074000	48.953331	-267.303487	202.972687	24.331949	
1.075000	48.953333	-267.063484	202.818655	24.321140	
1.076000	48.953336	-266.822978	202.664301	24.310311	
1.077000	48.953338	-266.582008	202.509649	24.299462	
1.078000	48.953341	-266.340614	202.354724	24.288597	
1.079000	48.953343	-266.098835	202.199553	24.277715	
1.080000	48.953346	-265.856715	202.044162	24.266820	
1.081000	48.953348	-265.614293	201.888579	24.255912	
1.082000	48.953351	-265.371615	201.732830	24.244993	
1.083000	48.953354	-265.128722	201.576944	24.234064	
1.084000	48.953357	-264.885660	201.420949	24.223128	
1.085000	48.953359	-264.642474	201.264875	24.212185	
1.086000	48.953362	-264.399210	201.108751	24.201238	
1.087000	48.953365	-264.155915	200.952607	24.190288	
1.088000	48.953368	-263.912636	200.796473	24.179337	
1.089000	48.953371	-263.669422	200.640381	24.168386	
1.090000	48.953374	-263.426322	200.484362	24.157438	
1.091000	48.953377	-263.183385	200.328447	24.146493	
1.092000	48.953380	-262.940662	200.172670	24.135554	
1.093000	48.953384	-262.698203	200.017063	24.124623	
1.094000	48.953387	-262.456062	199.861660	24.113700	
1.095000	48.953390	-262.214289	199.706493	24.102789	
1.096000	48.953393	-261.972939	199.551597	24.091891	
1.097000	48.953397	-261.732064	199.397007	24.081007	
1.098000	48.953400	-261.491719	199.242756	24.070140	
1.099000	48.953404	-261.251959	199.088881	24.059291	
1.100000	48.953407	-261.012838	198.935416	24.048462	
1.101000	48.953411	-260.774412	198.782397	24.037656	
1.102000	48.953414	-260.536737	198.629860	24.026874	
1.103000	48.953418	-260.299870	198.477842	24.016118	
1.104000	48.953421	-260.063866	198.326378	24.005390	
1.105000	48.953425	-259.828783	198.175505	23.994693	
1.106000	48.953428	-259.594678	198.025259	23.984027	
1.107000	48.953432	-259.361608	197.875677	23.973395	
1.108000	48.953435	-259.129629	197.726796	23.962800	
1.109000	48.953439	-258.898799	197.578653	23.952242	
1.110000	48.953443	-258.669175	197.431283	23.941724	
1.111000	48.953446	-258.440814	197.284724	23.931248	
1.112000	48.953450	-258.213771	197.139011	23.920815	
1.113000	48.953453	-257.988104	196.994180	23.910428	
1.114000	48.953457	-257.763867	196.850268	23.900088	
1.115000	48.953460	-257.541115	196.707309	23.889797	
1.116000	48.953463	-257.319904	196.565338	23.879557	
1.117000	48.953467	-257.100285	196.424390	23.869369	
1.118000	48.953470	-256.882313	196.284498	23.859235	
1.119000	48.953473	-256.666039	196.145696	23.849156	
1.120000	48.953477	-256.451512	196.008015	23.839133	
1.121000	48.953480	-256.238783	195.871488	23.829169	
1.122000	48.953483	-256.027900	195.736146	23.819263	
1.123000	48.953485	-255.818908	195.602017	23.809417	
1.124000	48.953488	-255.611852	195.469132	23.799633	
1.125000	48.953491	-255.406777	195.337516	23.789910	
1.126000	48.953493	-255.203722	195.207198	23.780249	
1.127000	48.953496	-255.002728	195.078202	23.770652	
1.128000	48.953498	-254.803831	194.950552	23.761118	
1.129000	48.953500	-254.607066	194.824271	23.751648	
1.130000	48.953502	-254.412468	194.699379	23.742243	
1.131000	48.953504	-254.220064	194.575896	23.732902	
1.132000	48.953506	-254.029885	194.453841	23.723625	
1.133000	48.953507	-253.841954	194.333229	23.714412	
1.134000	48.953509	-253.656295	194.214074	23.705264	
1.135000	48.953510	-253.472927	194.096390	23.696180	
1.136000	48.953511	-253.291868	193.980187	23.687159	
1.137000	48.953512	-253.113130	193.865474	23.678202	
1.138000	48.953512	-252.936726	193.752259	23.669308	
1.139000	48.953513	-252.762662	193.640546	23.660477	
1.140000	48.953513	-252.590945	193.530338	23.651708	
1.141000	48.953513	-252.421575	193.421637	23.643000	
1.142000	48.953513	-252.254551	193.314441	23.634353	
1.143000	48.953512	-252.089869	193.208749	23.625767	
1.144000	48.953512	-251.927521	193.104553	23.617242	
1.145000	48.953511	-251.767495	193.001849	23.608776	
1.146000	48.953510	-251.609777	192.900626	23.600369	
1.147000	48.953509	-251.454351	192.800873	23.592022	
1.148000	48.953507	-251.301196	192.702577	23.583734	
1.149000	48.953506	-251.150287	192.605724	23.575505	
1.150000	48.953504	-251.001600	192.510295	23.567335	
1.151000	48.953502	-250.855103	192.416273	23.559225	
1.152000	48.953500	-250.710765	192.323636	23.551174	
1.153000	48.953498	-250.568552	192.232362	23.543184	
1.154000	48.953495	-250.428424	192.142427	23.535256	
1.155000	48.953493	-250.290341	192.053805	23.527391	
1.156000	48.953490	-250.154262	191.966467	23.519591	
1.157000	48.953487	-250.020140	191.880386	23.511858	
1.158000	48.953484	-249.887928	191.795531	23.504194	
1.159000	48.953481	-249.757577	191.711870	23.496604	
1.160000	48.953478	-249.629034	191.629370	23.489090	
1.161000	48.953475	-249.502248	191.547997	23.481656	
1.162000	48.953471	-249.377162	191.467715	23.474309	
1.163000	48.953468	-249.253721	191.388489	23.467055	
1.164000	48.953464	-249.131867	191.310281	23.459899	
1.165000	48.953461	-249.011540	191.233053	23.452850	
1.166000	48.953457	-248.892680	191.156767	23.445916	
1.167000	48.953453	-248.775227	191.081383	23.439106	
1.168000	48.953449	-248.659118	191.006863	23.432430	
1.169000	48.953446	-248.544293	190.933165	23.425898	
1.170000	48.953442	-248.430686	190.860251	23.419518	
1.171000	48.953438	-248.318237	190.788079	23.413299	
1.172000	48.953434	-248.206881	190.716609	23.407248	
1.173000	48.953431	-248.096556	190.645800	23.401369	
1.174000	48.953427	-247.987199	190.575613	23.395665	
1.175000	48.953423	-247.878747	190.506006	23.390134	
1.176000	48.953420	-247.771138	190.436940	23.384771	
1.177000	48.953416	-247.664310	190.368376	23.379568	
1.178000	48.953413	-247.558203	190.300275	23.374514	
1.179000	48.953409	-247.452757	190.232597	23.369597	
1.180000	48.953406	-247.347911	190.165306	23.364801	
1.181000	48.953403	-247.243609	190.098363	23.360113	
1.182000	48.953399	-247.139793	190.031732	23.355515	
1.183000	48.953396	-247.036407	189.965377	23.350995	
1.184000	48.953393	-246.933397	189.899264	23.346537	
1.185000	48.953390	-246.830710	189.833358	23.342129	
1.186000	48.953388	-246.728294	189.767625	23.337758	
1.187000	48.953385	-246.626098	189.702035	23.333416	
1.188000	48.953382	-246.524075	189.636555	23.329091	
1.189000	48.953380	-246.422177	189.571155	23.324776	
1.190000	48.953377	-246.320358	189.505807	23.320464	
1.191000	48.953375	-246.218576	189.440482	23.316148	
1.192000	48.953373	-246.116788	189.375153	23.311823	
1.193000	48.953371	-246.014953	189.309795	23.307485	
1.194000	48.953369	-245.913034	189.244382	23.303128	
1.195000	48.953367	-245.810994	189.178892	23.298751	
1.196000	48.953366	-245.708797	189.113302	23.294350	
1.197000	48.953364	-245.606411	189.047590	23.289922	
1.198000	48.953363	-245.503805	188.981736	23.285466	
1.199000	48.953361	-245.400948	188.915722	23.280979	
1.200000	48.953360	-245.297813	188.849530	23.276462	
1.201000	48.953359	-245.194374	188.783142	23.271912	
1.202000	48.953358	-245.090606	188.716543	23.267328	
1.203000	48.953357	-244.986486	188.649719	23.262711	
1.204000	48.953357	-244.881995	188.582656	23.258059	
1.205000	48.953356	-244.777111	188.515342	23.253373	
1.206000	48.953355	-244.671818	188.447765	23.248652	
1.207000	48.953355	-244.566099	188.379915	23.243897	
1.208000	48.953355	-244.459940	188.311782	23.239107	
1.209000	48.953354	-244.353327	188.243357	23.234283	
1.210000	48.953354	-244.246249	188.174635	23.229425	
1.211000	48.953354	-244.138694	188.105607	23.224534	
1.212000	48.953354	-244.030655	188.036267	23.219610	
1.213000	48.953354	-243.922123	187.966612	23.214654	
1.214000	48.953354	-243.813093	187.896637	23.209666	
1.215000	48.953354	-243.703558	187.826338	23.204648	
1.216000	48.953355	-243.593515	187.755713	23.199598	
1.217000	48.953355	-243.482961	187.684760	23.194520	
1.218000	48.953356	-243.371895	187.613478	23.189413	
1.219000	48.953356	-243.260314	187.541866	23.184277	
1.220000	48.953357	-243.148221	187.469925	23.179115	
1.221000	48.953357	-243.035615	187.397656	23.173926	
1.222000	48.953358	-242.922499	187.325058	23.168712	
1.223000	48.953358	-242.808876	187.252136	23.163473	
1.224000	48.953359	-242.694749	187.178890	23.158210	
1.225000	48.953360	-242.580123	187.105324	23.152924	
1.226000	48.953361	-242.465004	187.031441	23.147616	
1.227000	48.953362	-242.349396	186.957245	23.142286	
1.228000	48.953363	-242.233307	186.882740	23.136936	
1.229000	48.953363	-242.116743	186.807930	23.131567	
1.230000	48.953364	-241.999712	186.732821	23.126178	
1.231000	48.953365	-241.882223	186.657417	23.120772	
1.232000	48.953366	-241.764284	186.581725	23.115348	
1.233000	48.953367	-241.645903	186.505749	23.109907	
1.234000	48.953368	-241.527091	186.429497	23.104451	
1.235000	48.953369	-241.407857	186.352973	23.098980	
1.236000	48.953370	-241.288211	186.276186	23.093495	
1.237000	48.953371	-241.168164	186.199140	23.087996	
1.238000	48.953372	-241.047727	186.121845	23.082484	
1.239000	48.953374	-240.926910	186.044305	23.076960	
1.240000	48.953375	-240.805724	185.966530	23.071425	
1.241000	48.953376	-240.684182	185.888525	23.065879	
1.242000	48.953377	-240.562293	185.810298	23.060323	
1.243000	48.953378	-240.440071	185.731857	23.054757	
1.244000	48.953379	-240.317527	185.653209	23.049183	
1.245000	48.953380	-240.194673	185.574362	23.043600	
1.246000	48.953381	-240.071520	185.495323	23.038010	
1.247000	48.953382	-239.948080	185.416101	23.032413	
1.248000	48.953383	-239.824366	185.336702	23.026809	
1.249000	48.953384	-239.700390	185.257135	23.021199	
1.250000	48.953385	-239.576163	185.177408	23.015584	
1.251000	48.953386	-239.451698	185.097527	23.009963	
1.252000	48.953387	-239.327006	185.017501	23.004339	
1.253000	48.953388	-239.202099	184.937337	22.998710	
1.254000	48.953389	-239.076990	184.857042	22.993078	
1.255000	48.953390	-238.951689	184.776625	22.987443	
1.256000	48.953391	-238.826209	184.696093	22.981805	
1.257000	48.953392	-238.700561	184.615453	22.976165	
1.258000	48.953393	-238.574756	184.534713	22.970523	
1.259000	48.953394	-238.448806	184.453879	22.964880	
1.260000	48.953395	-238.322722	184.372959	22.959235	
1.261000	48.953396	-238.196515	184.291960	22.953590	
1.262000	48.953397	-238.070195	184.210890	22.947945	
1.263000	48.953398	-237.943775	184.129754	22.942299	
1.264000	48.953399	-237.817263	184.048559	22.936653	
1.265000	48.953400	-237.690671	183.967314	22.931008	
1.266000	48.953400	-237.564009	183.886023	22.925364	
1.267000	48.953401	-237.437287	183.804694	22.919721	
1.268000	48.953402	-237.310515	183.723332	22.914078	
1.269000	48.953403	-237.183702	183.641945	22.908438	
1.270000	48.953404	-237.056859	183.560538	22.902799	
1.271000	48.953404	-236.929994	183.479117	22.897161	
1.272000	48.953405	-236.803117	183.397688	22.891526	
1.273000	48.953406	-236.676237	183.316257	22.885893	
1.274000	48.953407	-236.549363	183.234830	22.880261	
1.275000	48.953407	-236.422503	183.153412	22.874633	
1.276000	48.953408	-236.295666	183.072009	22.869007	
1.277000	48.953409	-236.168860	182.990626	22.863383	
1.278000	48.953409	-236.042093	182.909268	22.857762	
1.279000	48.953410	-235.915374	182.827940	22.852144	
1.280000	48.953410	-235.788709	182.746647	22.846529	
1.281000	48.953411	-235.662107	182.665395	22.840917	
1.282000	48.953412	-235.535575	182.584187	22.835308	
1.283000	48.953412	-235.409121	182.503029	22.829701	
1.284000	48.953413	-235.282750	182.421925	22.824098	
1.285000	48.953413	-235.156470	182.340880	22.818497	
1.286000	48.953414	-235.030289	182.259897	22.812900	
1.287000	48.953414	-234.904212	182.178982	22.807306	
1.288000	48.953415	-234.778245	182.098137	22.801715	
1.289000	48.953415	-234.652396	182.017368	22.796126	
1.290000	48.953416	-234.526670	181.936677	22.790541	
1.291000	48.953416	-234.401072	181.856070	22.784959	
1.292000	48.953417	-234.275610	181.775549	22.779379	
1.293000	48.953417	-234.150288	181.695118	22.773803	
1.294000	48.953417	-234.025112	181.614780	22.768229	
1.295000	48.953418	-233.900088	181.534540	22.762658	
1.296000	48.953418	-233.775220	181.454400	22.757090	
1.297000	48.953419	-233.650513	181.374365	22.751524	
1.298000	48.953419	-233.525973	181.294436	22.745961	
1.299000	48.953419	-233.401605	181.214617	22.740401	
1.300000	48.953420	-233.277413	181.134911	22.734843	
1.301000	48.953420	-233.153402	181.055321	22.729288	
1.302000	48.953420	-233.029575	180.975850	22.723735	
1.303000	48.953421	-232.905939	180.896500	22.718184	
1.304000	48.953421	-232.782496	180.817275	22.712636	
1.305000	48.953421	-232.659251	180.738177	22.707089	
1.306000	48.953421	-232.536209	180.659209	22.701545	
1.307000	48.953422	-232.413372	180.580373	22.696003	
1.308000	48.953422	-232.290745	180.501672	22.690463	
1.309000	48.953422	-232.168332	180.423107	22.684925	
1.310000	48.953422	-232.046136	180.344683	22.679388	
1.311000	48.953423	-231.924161	180.266400	22.673854	
1.312000	48.953423	-231.802411	180.188261	22.668321	
1.313000	48.953423	-231.680888	180.110268	22.662790	
1.314000	48.953423	-231.559597	180.032424	22.657260	
1.315000	48.953424	-231.438540	179.954730	22.651733	
1.316000	48.953424	-231.317721	179.877189	22.646206	
1.317000	48.953424	-231.197142	179.799802	22.640682	
1.318000	48.953424	-231.076807	179.722571	22.635159	
1.319000	48.953424	-230.956719	179.645499	22.629637	
1.320000	48.953425	-230.836880	179.568587	22.624117	
1.321000	48.953425	-230.717294	179.491837	22.618599	
1.322000	48.953425	-230.597963	179.415251	22.613081	
1.323000	48.953425	-230.478891	179.338831	22.607566	
1.324000	48.953425	-230.360078	179.262577	22.602052	
1.325000	48.953425	-230.241529	179.186493	22.596539	
1.326000	48.953426	-230.123245	179.110579	22.591028	
1.327000	48.953426	-230.005229	179.034837	22.585519	
1.328000	48.953426	-229.887484	178.959268	22.580011	
1.329000	48.953426	-229.770011	178.883875	22.574505	
1.330000	48.953426	-229.652814	178.808658	22.569000	
1.331000	48.953426	-229.535893	178.733618	22.563497	
1.332000	48.953426	-229.419252	178.658758	22.557996	
1.333000	48.953426	-229.302891	178.584079	22.552497	
1.334000	48.953427	-229.186814	178.509581	22.547000	
1.335000	48.953427	-229.071023	178.435266	22.541505	
1.336000	48.953427	-228.955518	178.361136	22.536013	
1.337000	48.953427	-228.840302	178.287190	22.530522	
1.338000	48.953427	-228.725376	178.213431	22.525034	
1.339000	48.953427	-228.610742	178.139860	22.519549	
1.340000	48.953363	-228.494928	178.065489	22.514066	
1.341000	48.953363	-228.376203	177.989292	22.508506	
1.342000	48.953364	-228.254572	177.911231	22.502865	
1.343000	48.953365	-228.130047	177.831311	22.497144	
1.344000	48.953366	-228.002642	177.749544	22.491343	
1.345000	48.953367	-227.872374	177.665939	22.485462	
1.346000	48.953369	-227.739263	177.580509	22.479502	
1.347000	48.953370	-227.603333	177.493271	22.473463	
1.348000	48.953372	-227.464610	177.404240	22.467344	
1.349000	48.953374	-227.323123	177.313436	22.461148	
1.350000	48.953376	-227.178906	177.220879	22.454873	
1.351000	48.953378	-227.031993	177.126592	22.448521	
1.352000	48.953381	-226.882423	177.030600	22.442093	
1.353000	48.953384	-226.730236	176.932929	22.435587	
1.354000	48.953387	-226.575477	176.833607	22.429006	
1.355000	48.953390	-226.418192	176.732664	22.422350	
1.356000	48.953393	-226.258430	176.630131	22.415619	
1.357000	48.953396	-226.096245	176.526043	22.408814	
1.358000	48.953400	-225.931689	176.420434	22.401935	
1.359000	48.953403	-225.764820	176.313340	22.394984	
1.360000	48.953407	-225.595699	176.204801	22.387961	
1.361000	48.953411	-225.424386	176.094856	22.380867	
1.362000	48.953415	-225.250947	175.983546	22.373703	
1.363000	48.953419	-225.075448	175.870914	22.366469	
1.364000	48.953424	-224.897958	175.757004	22.359166	
1.365000	48.953428	-224.718548	175.641862	22.351795	
1.366000	48.953433	-224.537291	175.525535	22.344358	
1.367000	48.953438	-224.354263	175.408071	22.336854	
1.368000	48.953442	-224.169541	175.289520	22.329286	
1.369000	48.953447	-223.983203	175.169932	22.321653	
1.370000	48.953453	-223.795329	175.049359	22.313957	
1.371000	48.953458	-223.606003	174.927853	22.306199	
1.372000	48.953463	-223.415309	174.805469	22.298379	
1.373000	48.953468	-223.223331	174.682262	22.290500	
1.374000	48.953474	-223.030156	174.558286	22.282561	
1.375000	48.953479	-222.835873	174.433600	22.274565	
1.376000	48.953485	-222.640571	174.308259	22.266512	
1.377000	48.953490	-222.444340	174.182322	22.258403	
1.378000	48.953496	-222.247272	174.055848	22.250240	
1.379000	48.953502	-222.049459	173.928896	22.242024	
1.380000	48.953508	-221.850995	173.801526	22.233755	
1.381000	48.953513	-221.651973	173.673798	22.225436	
1.382000	48.953519	-221.452489	173.545773	22.217067	
1.383000	48.953525	-221.252637	173.417513	22.208650	
1.384000	48.953531	-221.052513	173.289078	22.200186	
1.385000	48.953537	-220.852214	173.160530	22.191676	
1.386000	48.953543	-220.651835	173.031931	22.183122	
1.387000	48.953549	-220.451473	172.903343	22.174525	
1.388000	48.953555	-220.251224	172.774828	22.165887	
1.389000	48.953560	-220.051186	172.646448	22.157209	
1.390000	48.953566	-219.851454	172.518264	22.148492	
1.391000	48.953572	-219.652125	172.390339	22.139739	
1.392000	48.953578	-219.453295	172.262734	22.130950	
1.393000	48.953584	-219.255058	172.135510	22.122127	
1.394000	48.953590	-219.057510	172.008728	22.113272	
1.395000	48.953595	-218.860746	171.882449	22.104387	
1.396000	48.953601	-218.664858	171.756732	22.095473	
1.397000	48.953607	-218.469939	171.631638	22.086533	
1.398000	48.953612	-218.276082	171.507224	22.077568	
1.399000	48.953618	-218.083376	171.383550	22.068579	
1.400000	48.953623	-217.891913	171.260673	22.059570	
1.401000	48.953628	-217.701781	171.138650	22.050542	
1.402000	48.953633	-217.513066	171.017537	22.041497	
1.403000	48.953639	-217.325856	170.897389	22.032438	
1.404000	48.953644	-217.140235	170.778261	22.023366	
1.405000	48.953649	-216.956285	170.660206	22.014286	
1.406000	48.953653	-216.774090	170.543277	22.005198	
1.407000	48.953658	-216.593727	170.427524	21.996107	
1.408000	48.953663	-216.415277	170.312998	21.987014	
1.409000	48.953667	-216.238814	170.199747	21.977924	
1.410000	48.953672	-216.064414	170.087821	21.968839	
1.411000	48.953676	-215.892149	169.977264	21.959763	
1.412000	48.953680	-215.722090	169.868123	21.950700	
1.413000	48.953684	-215.554304	169.760442	21.941655	
1.414000	48.953688	-215.388859	169.654262	21.932631	
1.415000	48.953691	-215.225819	169.549626	21.923635	
1.416000	48.953695	-215.065245	169.446572	21.914671	
1.417000	48.953698	-214.907196	169.345139	21.905745	
1.418000	48.953702	-214.751730	169.245363	21.896864	
1.419000	48.953705	-214.598901	169.147280	21.888036	
1.420000	48.953708	-214.448763	169.050924	21.879270	
1.421000	48.953710	-214.301363	168.956325	21.870573	
1.422000	48.953713	-214.156750	168.863514	21.861957	
1.423000	48.953715	-214.014967	168.772520	21.853433	
1.424000	48.953718	-213.876058	168.683370	21.845015	
1.425000	48.953720	-213.740060	168.596088	21.836716	
1.426000	48.953722	-213.607010	168.510698	21.828554	
1.427000	48.953723	-213.476943	168.427223	21.820548	
1.428000	48.953725	-213.349888	168.345680	21.812717	
1.429000	48.953726	-213.225875	168.266090	21.805084	
1.430000	48.953728	-213.104927	168.188467	21.797674	
1.431000	48.953729	-212.987069	168.112826	21.790513	
1.432000	48.953729	-212.872319	168.039181	21.783630	
1.433000	48.953730	-212.760694	167.967541	21.777052	
1.434000	48.953731	-212.652209	167.897916	21.770808	
1.435000	48.953731	-212.546874	167.830312	21.764925	
1.436000	48.953731	-212.444697	167.764735	21.759425	
1.437000	48.953731	-212.345684	167.701189	21.754327	
1.438000	48.953731	-212.249837	167.639675	21.749644	
1.439000	48.953730	-212.157156	167.580192	21.745381	
1.440000	48.953730	-212.067637	167.522739	21.741535	
1.441000	48.953729	-211.981275	167.467311	21.738097	
1.442000	48.953728	-211.898059	167.413903	21.735049	
1.443000	48.953727	-211.817979	167.362507	21.732370	
1.444000	48.953726	-211.741020	167.313114	21.730034	
1.445000	48.953724	-211.667164	167.265712	21.728012	
1.446000	48.953723	-211.596391	167.220289	21.726275	
1.447000	48.953721	-211.528678	167.176830	21.724795	
1.448000	48.953719	-211.464000	167.135319	21.723543	
1.449000	48.953717	-211.402328	167.095737	21.722493	
1.450000	48.953715	-211.343632	167.058064	21.721622	
1.451000	48.953712	-211.287877	167.022279	21.720908	
1.452000	48.953710	-211.235028	166.988360	21.720330	
1.453000	48.953707	-211.185047	166.956280	21.719871	
1.454000	48.953704	-211.137891	166.926014	21.719515	
1.455000	48.953701	-211.093518	166.897533	21.719249	
1.456000	48.953698	-211.051882	166.870809	21.719059	
1.457000	48.953694	-211.012935	166.845811	21.718935	
1.458000	48.953691	-210.976625	166.822505	21.718867	
1.459000	48.953687	-210.942900	166.800858	21.718847	
1.460000	48.953683	-210.911706	166.780836	21.718866	
1.461000	48.953680	-210.882985	166.762400	21.718919	
1.462000	48.953676	-210.856678	166.745514	21.718998	
1.463000	48.953671	-210.832725	166.730138	21.719099	
1.464000	48.953667	-210.811061	166.716231	21.719216	
1.465000	48.953663	-210.791623	166.703753	21.719346	
1.466000	48.953658	-210.774343	166.692660	21.719485	
1.467000	48.953654	-210.759153	166.682908	21.719628	
1.468000	48.953649	-210.745983	166.674453	21.719774	
1.469000	48.953644	-210.734762	166.667248	21.719918	
1.470000	48.953640	-210.725416	166.661247	21.720058	
1.471000	48.953635	-210.717871	166.656401	21.720193	
1.472000	48.953630	-210.712050	166.652662	21.720319	
1.473000	48.953625	-210.707877	166.649981	21.720435	
1.474000	48.953619	-210.705272	166.648306	21.720539	
1.475000	48.953614	-210.704157	166.647587	21.720629	
1.476000	48.953609	-210.704450	166.647772	21.720703	
1.477000	48.953604	-210.706071	166.648808	21.720761	
1.478000	48.953598	-210.708935	166.650643	21.720800	
1.479000	48.953593	-210.712961	166.653223	21.720819	
1.480000	48.953587	-210.718063	166.656494	21.720817	
1.481000	48.953582	-210.724157	166.660402	21.720793	
1.482000	48.953576	-210.731158	166.664892	21.720745	
1.483000	48.953571	-210.738980	166.669908	21.720673	
1.484000	48.953565	-210.747536	166.675396	21.720575	
1.485000	48.953560	-210.756740	166.681300	21.720450	
1.486000	48.953554	-210.766506	166.687564	21.720297	
1.487000	48.953548	-210.776746	166.694132	21.720116	
1.488000	48.953543	-210.787374	166.700949	21.719904	
1.489000	48.953537	-210.798302	166.707959	21.719663	
1.490000	48.953532	-210.809443	166.715106	21.719389	
1.491000	48.953526	-210.820712	166.722335	21.719083	
1.492000	48.953521	-210.832021	166.729590	21.718744	
1.493000	48.953515	-210.843286	166.736816	21.718370	
1.494000	48.953510	-210.854419	166.743957	21.717961	
1.495000	48.953504	-210.865337	166.750961	21.717516	
1.496000	48.953499	-210.875954	166.757772	21.717035	
1.497000	48.953494	-210.886188	166.764337	21.716516	
1.498000	48.953488	-210.895956	166.770602	21.715958	
1.499000	48.953483	-210.905175	166.776516	21.715362	
1.500000	48.953478	-210.913765	166.782025	21.714726	
1.501000	48.953473	-210.921645	166.787080	21.714049	
1.502000	48.953468	-210.928738	166.791628	21.713330	
1.503000	48.953463	-210.934965	166.795622	21.712570	
1.504000	48.953458	-210.940250	166.799010	21.711767	
1.505000	48.953453	-210.944518	166.801746	21.710921	
1.506000	48.953449	-210.947695	166.803783	21.710031	
1.507000	48.953444	-210.949711	166.805073	21.709096	
1.508000	48.953440	-210.950493	166.805573	21.708116	
1.509000	48.953436	-210.949975	166.805237	21.707090	
1.510000	48.953431	-210.948088	166.804024	21.706017	
1.511000	48.953427	-210.944767	166.801890	21.704898	
1.512000	48.953423	-210.939950	166.798796	21.703731	
1.513000	48.953419	-210.933575	166.794702	21.702515	
1.514000	48.953416	-210.925582	166.789569	21.701251	
1.515000	48.953412	-210.915915	166.783363	21.699938	
1.516000	48.953409	-210.904518	166.776046	21.698575	
1.517000	48.953405	-210.891338	166.767585	21.697162	
1.518000	48.953402	-210.876324	166.757947	21.695698	
1.519000	48.953399	-210.859429	166.747102	21.694183	
1.520000	48.953396	-210.840606	166.735019	21.692616	
1.521000	48.953394	-210.819811	166.721672	21.690997	
1.522000	48.953391	-210.797003	166.707032	21.689326	
1.523000	48.953389	-210.772144	166.691076	21.687602	
1.524000	48.953387	-210.745197	166.673780	21.685824	
1.525000	48.953385	-210.716128	166.655123	21.683992	
1.526000	48.953383	-210.684907	166.635084	21.682107	
1.527000	48.953381	-210.651506	166.613646	21.680166	
1.528000	48.953379	-210.615897	166.590791	21.678171	
1.529000	48.953378	-210.578059	166.566506	21.676121	
1.530000	48.953377	-210.537970	166.540776	21.674015	
1.531000	48.953376	-210.495614	166.513591	21.671853	
1.532000	48.953375	-210.450974	166.484941	21.669635	
1.533000	48.953374	-210.404040	166.454819	21.667361	
1.534000	48.953374	-210.354802	166.423217	21.665029	
1.535000	48.953373	-210.303252	166.390133	21.662641	
1.536000	48.953373	-210.249387	166.355562	21.660196	
1.537000	48.953772	-210.193696	166.320076	21.657693	
1.538000	48.953772	-210.138588	166.284708	21.655178	
1.539000	48.953772	-210.084393	166.249925	21.652690	
1.540000	48.953772	-210.031111	166.215729	21.650226	
1.541000	48.953772	-209.978747	166.182122	21.647788	
1.542000	48.953772	-209.927302	166.149105	21.645375	
1.543000	48.953772	-209.876778	166.116679	21.642987	
1.544000	48.953772	-209.827176	166.084845	21.640624	
1.545000	48.953772	-209.778497	166.053602	21.638285	
1.546000	48.953772	-209.730739	166.022952	21.635970	
1.547000	48.953772	-209.683905	165.992893	21.633680	
1.548000	48.953772	-209.637991	165.963426	21.631413	
1.549000	48.953772	-209.592997	165.934548	21.629170	
1.550000	48.953771	-209.548920	165.906260	21.626951	
1.551000	48.953771	-209.505759	165.878559	21.624754	
1.552000	48.953771	-209.463510	165.851444	21.622581	
1.553000	48.953770	-209.422169	165.824911	21.620431	
1.554000	48.953770	-209.381733	165.798959	21.618303	
1.555000	48.953770	-209.342196	165.773584	21.616198	
1.556000	48.953769	-209.303554	165.748783	21.614115	
1.557000	48.953769	-209.265800	165.724553	21.612054	
1.558000	48.953768	-209.228928	165.700888	21.610015	
1.559000	48.953768	-209.192931	165.677785	21.607998	
1.560000	48.953767	-209.157803	165.655239	21.606003	
1.561000	48.953767	-209.123533	165.633245	21.604029	
1.562000	48.953766	-209.090116	165.611797	21.602077	
1.563000	48.953765	-209.057540	165.590890	21.600146	
1.564000	48.953765	-209.025797	165.570517	21.598236	
1.565000	48.953764	-208.994876	165.550671	21.596347	
1.566000	48.953763	-208.964766	165.531347	21.594479	
1.567000	48.953763	-208.935458	165.512536	21.592632	
1.568000	48.953762	-208.906938	165.494231	21.590805	
1.569000	48.953761	-208.879195	165.476425	21.588999	
1.570000	48.953760	-208.852215	165.459110	21.587214	
1.571000	48.953759	-208.825987	165.442276	21.585450	
1.572000	48.953758	-208.800497	165.425916	21.583706	
1.573000	48.953757	-208.775730	165.410020	21.581983	
1.574000	48.953756	-208.751672	165.394579	21.580280	
1.575000	48.953755	-208.728308	165.379583	21.578597	
1.576000	48.953754	-208.705623	165.365024	21.576936	
1.577000	48.953753	-208.683602	165.350890	21.575295	
1.578000	48.953752	-208.662229	165.337172	21.573674	
1.579000	48.953751	-208.641487	165.323859	21.572074	
1.580000	48.953750	-208.621360	165.310941	21.570495	
1.581000	48.953749	-208.601831	165.298407	21.568937	
1.582000	48.953748	-208.582884	165.286246	21.567399	
1.583000	48.953747	-208.564499	165.274446	21.565882	
1.584000	48.953746	-208.546661	165.262997	21.564387	
1.585000	48.953745	-208.529351	165.251887	21.562912	
1.586000	48.953743	-208.512552	165.241104	21.561459	
1.587000	48.953742	-208.496244	165.230637	21.560027	
1.588000	48.953741	-208.480410	165.220474	21.558616	
1.589000	48.953740	-208.465032	165.210604	21.557227	
1.590000	48.953739	-208.450090	165.201013	21.555859	
1.591000	48.953738	-208.435567	165.191692	21.554513	
1.592000	48.953736	-208.421443	165.182626	21.553189	
1.593000	48.953695	-208.407693	165.173775	21.551887	
1.594000	48.953694	-208.393853	165.164891	21.550603	
1.595000	48.953693	-208.379624	165.155759	21.549306	
1.596000	48.953691	-208.364990	165.146366	21.547996	
1.597000	48.953690	-208.349933	165.136702	21.546675	
1.598000	48.953690	-208.334438	165.126757	21.545342	
1.599000	48.953689	-208.318489	165.116520	21.543996	
1.600000	48.953688	-208.302072	165.105983	21.542639	
1.601000	48.953687	-208.285172	165.095136	21.541270	
1.602000	48.953686	-208.267778	165.083972	21.539890	
1.603000	48.953686	-208.249877	165.072483	21.538499	
1.604000	48.953685	-208.231457	165.060661	21.537097	
1.605000	48.953684	-208.212509	165.048499	21.535683	
1.606000	48.953684	-208.193022	165.035993	21.534259	
1.607000	48.953683	-208.172989	165.023135	21.532825	
1.608000	48.953683	-208.152400	165.009921	21.531380	
1.609000	48.953683	-208.131249	164.996346	21.529925	
1.610000	48.953682	-208.109530	164.982406	21.528460	
1.611000	48.953682	-208.087236	164.968098	21.526985	
1.612000	48.953682	-208.064364	164.953419	21.525501	
1.613000	48.953682	-208.040910	164.938366	21.524008	
1.614000	48.953681	-208.016869	164.922937	21.522505	
1.615000	48.953681	-207.992241	164.907130	21.520993	
1.616000	48.953681	-207.967023	164.890946	21.519472	
1.617000	48.953681	-207.941215	164.874382	21.517943	
1.618000	48.953681	-207.914817	164.857440	21.516405	
1.619000	48.953682	-207.887829	164.840119	21.514859	
1.620000	48.953682	-207.860253	164.822421	21.513305	
1.621000	48.953682	-207.832091	164.804347	21.511742	
1.622000	48.953682	-207.803346	164.785898	21.510172	
1.623000	48.953682	-207.774021	164.767078	21.508594	
1.624000	48.953683	-207.744120	164.747888	21.507008	
1.625000	48.953683	-207.713649	164.728332	21.505415	
1.626000	48.953683	-207.682612	164.708413	21.503814	
1.627000	48.953684	-207.651016	164.688135	21.502207	
1.628000	48.953684	-207.618867	164.667502	21.500592	
1.629000	48.953685	-207.586172	164.646518	21.498970	
1.630000	48.953685	-207.552939	164.625190	21.497341	
1.631000	48.953686	-207.519175	164.603521	21.495705	
1.632000	48.953687	-207.484891	164.581518	21.494063	
1.633000	48.953687	-207.450094	164.559186	21.492414	
1.634000	48.953688	-207.414794	164.536531	21.490758	
1.635000	48.953688	-207.379002	164.513560	21.489096	
1.636000	48.953689	-207.342727	164.490279	21.487427	
1.637000	48.953690	-207.305980	164.466695	21.485752	
1.638000	48.953691	-207.268772	164.442816	21.484071	
1.639000	48.953691	-207.231115	164.418648	21.482383	
1.640000	48.953692	-207.193020	164.394200	21.480689	
1.641000	48.953693	-207.154500	164.369478	21.478990	
1.642000	48.953694	-207.115566	164.344491	21.477284	
1.643000	48.953694	-207.076232	164.319246	21.475573	
1.644000	48.953695	-207.036509	164.293753	21.473856	
1.645000	48.953696	-206.996410	164.268019	21.472133	
1.646000	48.953697	-206.955950	164.242052	21.470405	
1.647000	48.953698	-206.915140	164.215861	21.468672	
1.648000	48.953698	-206.873995	164.189454	21.466934	
1.649000	48.953699	-206.832528	164.162841	21.465191	
1.650000	48.953700	-206.790751	164.136030	21.463444	
1.651000	48.953701	-206.748680	164.109029	21.461692	
1.652000	48.953702	-206.706328	164.081848	21.459936	
1.653000	48.953703	-206.663708	164.054495	21.458177	
1.654000	48.953703	-206.620834	164.026979	21.456415	
1.655000	48.953704	-206.577719	163.999309	21.454649	
1.656000	48.953705	-206.534379	163.971494	21.452882	
1.657000	48.953706	-206.490825	163.943542	21.451113	
1.658000	48.953707	-206.447072	163.915462	21.449342	
1.659000	48.953707	-206.403134	163.887263	21.447571	
1.660000	48.953708	-206.359023	163.858953	21.445800	
1.661000	48.953709	-206.314753	163.830541	21.444030	
1.662000	48.953710	-206.270337	163.802036	21.442261	
1.663000	48.953711	-206.225788	163.773445	21.440495	
1.664000	48.953711	-206.181120	163.744777	21.438733	
1.665000	48.953712	-206.136344	163.716041	21.436974	
1.666000	48.953713	-206.091474	163.687243	21.435221	
1.667000	48.953713	-206.046521	163.658393	21.433475	
1.668000	48.953714	-206.001497	163.629498	21.431735	
1.669000	48.953715	-205.956416	163.600565	21.430005	
1.670000	48.953715	-205.911287	163.571602	21.428285	
1.671000	48.953716	-205.866123	163.542617	21.426575	
1.672000	48.953717	-205.820935	163.513615	21.424879	
1.673000	48.953717	-205.775733	163.484605	21.423196	
1.674000	48.953718	-205.730528	163.455593	21.421528	
1.675000	48.953718	-205.685331	163.426586	21.419878	
1.676000	48.953719	-205.640150	163.397589	21.418245	
1.677000	48.953719	-205.594996	163.368610	21.416632	
1.678000	48.953720	-205.549878	163.339654	21.415039	
1.679000	48.953720	-205.504805	163.310726	21.413470	
1.680000	48.953721	-205.459785	163.281833	21.411923	
1.681000	48.953721	-205.414827	163.252979	21.410402	
1.682000	48.953721	-205.369938	163.224170	21.408907	
1.683000	48.953722	-205.325126	163.195410	21.407440	
1.684000	48.953722	-205.280398	163.166704	21.406001	
1.685000	48.953722	-205.235761	163.138056	21.404592	
1.686000	48.953722	-205.191221	163.109470	21.403213	
1.687000	48.953723	-205.146783	163.080950	21.401866	
1.688000	48.953723	-205.102454	163.052500	21.400550	
1.689000	48.953723	-205.058239	163.024123	21.399267	
1.690000	48.953723	-205.014141	162.995821	21.398017	
1.691000	48.953723	-204.970166	162.967599	21.396799	
1.692000	48.953723	-204.926318	162.939457	21.395614	
1.693000	48.953723	-204.882599	162.911398	21.394462	
1.694000	48.953723	-204.839013	162.883425	21.393342	
1.695000	48.953723	-204.795562	162.855538	21.392253	
1.696000	48.953723	-204.752249	162.827740	21.391195	
1.697000	48.953723	-204.709076	162.800032	21.390167	
1.698000	48.953723	-204.666043	162.772413	21.389168	
1.699000	48.953723	-204.623152	162.744886	21.388196	
1.700000	48.953723	-204.580404	162.717450	21.387250	
1.701000	48.953723	-204.537798	162.690105	21.386328	
1.702000	48.953723	-204.495334	162.662852	21.385429	
1.703000	48.953722	-204.453012	162.635690	21.384550	
1.704000	48.953722	-204.410830	162.608618	21.383690	
1.705000	48.953722	-204.368788	162.581635	21.382847	
1.706000	48.953721	-204.326883	162.554740	21.382018	
1.707000	48.953721	-204.285114	162.527933	21.381202	
1.708000	48.953721	-204.243477	162.501210	21.380395	
1.709000	48.953720	-204.201971	162.474571	21.379596	
1.710000	48.953720	-204.160592	162.448014	21.378803	
1.711000	48.953720	-204.119336	162.421536	21.378013	
1.712000	48.953719	-204.078199	162.395134	21.377223	
1.713000	48.953719	-204.037178	162.368807	21.376432	
1.714000	48.953718	-203.996269	162.342551	21.375636	
1.715000	48.953718	-203.955466	162.316363	21.374835	
1.716000	48.953717	-203.914764	162.290241	21.374025	
1.717000	48.953717	-203.874160	162.264181	21.373205	
1.718000	48.953716	-203.833646	162.238179	21.372372	
1.719000	48.953715	-203.793219	162.212232	21.371524	
1.720000	48.953715	-203.752871	162.186337	21.370660	
1.721000	48.953714	-203.712597	162.160489	21.369776	
1.722000	48.953714	-203.672392	162.134685	21.368872	
1.723000	48.953713	-203.632248	162.108920	21.367946	
1.724000	48.953712	-203.592160	162.083191	21.366995	
1.725000	48.953712	-203.552121	162.057494	21.366018	
1.726000	48.953711	-203.512125	162.031824	21.365015	
1.727000	48.953711	-203.472166	162.006178	21.363982	
1.728000	48.953710	-203.432236	161.980551	21.362919	
1.729000	48.953709	-203.392330	161.954939	21.361824	
1.730000	48.953709	-203.352440	161.929337	21.360696	
1.731000	48.953708	-203.312561	161.903743	21.359534	
1.732000	48.953707	-203.272686	161.878151	21.358336	
1.733000	48.953707	-203.232809	161.852558	21.357102	
1.734000	48.953706	-203.192924	161.826959	21.355831	
1.735000	48.953706	-203.153025	161.801351	21.354522	
1.736000	48.953705	-203.113106	161.775731	21.353173	
1.737000	48.953704	-203.073160	161.750094	21.351785	
1.738000	48.953704	-203.033184	161.724437	21.350356	
1.739000	48.953703	-202.993172	161.698757	21.348886	
1.740000	48.953703	-202.953118	161.673050	21.347374	
1.741000	48.953702	-202.913018	161.647314	21.345820	
1.742000	48.953702	-202.872869	161.621545	21.344223	
1.743000	48.953701	-202.832665	161.595742	21.342584	
1.744000	48.953701	-202.792403	161.569902	21.340901	
1.745000	48.953701	-202.752080	161.544023	21.339175	
1.746000	48.953700	-202.711693	161.518102	21.337406	
1.747000	48.953700	-202.671239	161.492139	21.335593	
1.748000	48.953699	-202.630717	161.466132	21.333736	
1.749000	48.953699	-202.590125	161.440080	21.331836	
1.750000	48.953699	-202.549462	161.413982	21.329892	
1.751000	48.953699	-202.508726	161.387838	21.327905	
1.752000	48.953698	-202.467919	161.361648	21.325875	
1.753000	48.953698	-202.427040	161.335412	21.323803	
1.754000	48.953698	-202.386090	161.309130	21.321688	
1.755000	48.953698	-202.345072	161.282804	21.319531	
1.756000	48.953698	-202.303985	161.256435	21.317333	
1.757000	48.953698	-202.262834	161.230025	21.315094	
1.758000	48.953698	-202.221622	161.203575	21.312815	
1.759000	48.953698	-202.180352	161.177088	21.310496	
1.760000	48.953698	-202.139028	161.150566	21.308138	
1.761000	48.953698	-202.097656	161.124014	21.305743	
1.762000	48.953698	-202.056240	161.097433	21.303310	
1.763000	48.953699	-202.014788	161.070830	21.300841	
1.764000	48.953699	-201.973305	161.044206	21.298336	
1.765000	48.953699	-201.931799	161.017568	21.295797	
1.766000	48.953699	-201.890278	160.990920	21.293225	
1.767000	48.953700	-201.848750	160.964268	21.290621	
1.768000	48.953700	-201.807224	160.937617	21.287986	
1.769000	48.953701	-201.765710	160.910973	21.285321	
1.770000	48.953701	-201.724218	160.884344	21.282628	
1.771000	48.953702	-201.682758	160.857736	21.279907	
1.772000	48.953702	-201.641342	160.831156	21.277161	
1.773000	48.953703	-201.599982	160.804611	21.274391	
1.774000	48.953703	-201.558689	160.778110	21.271598	
1.775000	48.953704	-201.517477	160.751660	21.268783	
1.776000	48.953705	-201.476358	160.725271	21.265950	
1.777000	48.953705	-201.435346	160.698950	21.263098	
1.778000	48.953706	-201.394456	160.672707	21.260230	
1.779000	48.953707	-201.353701	160.646551	21.257347	
1.780000	48.953707	-201.313096	160.620492	21.254451	
1.781000	48.953708	-201.272657	160.594538	21.251545	
1.782000	48.953709	-201.232399	160.568701	21.248630	
1.783000	48.953710	-201.192337	160.542990	21.245707	
1.784000	48.953711	-201.152488	160.517416	21.242779	
1.785000	48.953712	-201.112868	160.491988	21.239848	
1.786000	48.953712	-201.073493	160.466718	21.236915	
1.787000	48.953713	-201.034380	160.441616	21.233983	
1.788000	48.953714	-200.995546	160.416693	21.231054	
1.789000	48.953715	-200.957007	160.391960	21.228129	
1.790000	48.953716	-200.918781	160.367427	21.225211	
1.791000	48.953717	-200.880885	160.343106	21.222302	
1.792000	48.953794	-200.843516	160.319172	21.219404	
1.793000	48.953795	-200.807211	160.295872	21.216543	
1.794000	48.953796	-200.772018	160.273286	21.213733	
1.795000	48.953797	-200.737954	160.251424	21.210974	
1.796000	48.953798	-200.705032	160.230296	21.208270	
1.797000	48.953798	-200.673266	160.209909	21.205621	
1.798000	48.953799	-200.642670	160.190273	21.203030	
1.799000	48.953799	-200.613255	160.171395	21.200499	
1.800000	48.953800	-200.585032	160.153282	21.198029	
1.801000	48.953800	-200.558012	160.135941	21.195622	
1.802000	48.953801	-200.532203	160.119377	21.193280	
1.803000	48.953801	-200.507614	160.103596	21.191004	
1.804000	48.953801	-200.484251	160.088602	21.188795	
1.805000	48.953801	-200.462121	160.074399	21.186655	
1.806000	48.953801	-200.441229	160.060991	21.184586	
1.807000	48.953802	-200.421580	160.048379	21.182587	
1.808000	48.953802	-200.403175	160.036567	21.180661	
1.809000	48.953801	-200.386016	160.025555	21.178807	
1.810000	48.953801	-200.370106	160.015344	21.177027	
1.811000	48.953801	-200.355443	160.005933	21.175321	
1.812000	48.953801	-200.342027	159.997322	21.173690	
1.813000	48.953800	-200.329854	159.989510	21.172133	
1.814000	48.953800	-200.318922	159.982493	21.170652	
1.815000	48.953800	-200.309226	159.976270	21.169245	
1.816000	48.953799	-200.300761	159.970837	21.167913	
1.817000	48.953799	-200.293519	159.966189	21.166655	
1.818000	48.953798	-200.287494	159.962321	21.165471	
1.819000	48.953797	-200.282677	159.959229	21.164361	
1.820000	48.953796	-200.279057	159.956905	21.163323	
1.821000	48.953795	-200.276625	159.955344	21.162356	
1.822000	48.953795	-200.275368	159.954537	21.161461	
1.823000	48.953794	-200.275274	159.954476	21.160635	
1.824000	48.953793	-200.276328	159.955152	21.159877	
1.825000	48.953792	-200.278518	159.956556	21.159187	
1.826000	48.953790	-200.281826	159.958679	21.158562	
1.827000	48.953789	-200.286236	159.961508	21.158002	
1.828000	48.953788	-200.291731	159.965034	21.157505	
1.829000	48.953787	-200.298293	159.969245	21.157069	
1.830000	48.953785	-200.305901	159.974127	21.156692	
1.831000	48.953784	-200.314537	159.979669	21.156373	
1.832000	48.953782	-200.324179	159.985856	21.156110	
1.833000	48.953781	-200.334805	159.992675	21.155902	
1.834000	48.953779	-200.346393	160.000111	21.155746	
1.835000	48.953778	-200.358920	160.008149	21.155641	
1.836000	48.953776	-200.372361	160.016775	21.155584	
1.837000	48.953775	-200.386692	160.025971	21.155574	
1.838000	48.953773	-200.401886	160.035722	21.155610	
1.839000	48.953771	-200.417919	160.046010	21.155688	
1.840000	48.953769	-200.434762	160.056819	21.155808	
1.841000	48.953767	-200.452388	160.068130	21.155967	
1.842000	48.953766	-200.470769	160.079926	21.156164	
1.843000	48.953764	-200.489877	160.092188	21.156396	
1.844000	48.953762	-200.509681	160.104897	21.156662	
1.845000	48.953760	-200.530151	160.118034	21.156959	
1.846000	48.953758	-200.551258	160.131578	21.157287	
1.847000	48.953756	-200.572970	160.145512	21.157643	
1.848000	48.953753	-200.595254	160.159812	21.158025	
1.849000	48.953751	-200.618080	160.174460	21.158432	
1.850000	48.953749	-200.641414	160.189435	21.158861	
1.851000	48.953747	-200.665223	160.204714	21.159311	
1.852000	48.953745	-200.689474	160.220277	21.159780	
1.853000	48.953743	-200.714132	160.236101	21.160266	
1.854000	48.953740	-200.739163	160.252164	21.160768	
1.855000	48.953738	-200.764533	160.268445	21.161283	
1.856000	48.953736	-200.790207	160.284921	21.161811	
1.857000	48.953733	-200.816147	160.301568	21.162348	
1.858000	48.953731	-200.842320	160.318364	21.162894	
1.859000	48.953729	-200.868688	160.335286	21.163446	
1.860000	48.953726	-200.895216	160.352309	21.164004	
1.861000	48.953724	-200.921866	160.369412	21.164565	
1.862000	48.953721	-200.948601	160.386569	21.165127	
1.863000	48.953719	-200.975384	160.403756	21.165689	
1.864000	48.953717	-201.002178	160.420951	21.166249	
1.865000	48.953714	-201.028944	160.438128	21.166805	
1.866000	48.953712	-201.055646	160.455263	21.167356	
1.867000	48.953580	-201.082239	160.472247	21.167900	
1.868000	48.953578	-201.105024	160.486869	21.168430	
1.869000	48.953576	-201.120827	160.497009	21.168833	
1.870000	48.953574	-201.129617	160.502650	21.169106	
1.871000	48.953573	-201.131374	160.503777	21.169247	
1.872000	48.953573	-201.126081	160.500380	21.169256	
1.873000	48.953572	-201.113731	160.492453	21.169131	
1.874000	48.953572	-201.094322	160.479996	21.168870	
1.875000	48.953573	-201.067858	160.463012	21.168471	
1.876000	48.953574	-201.034350	160.441508	21.167934	
1.877000	48.953575	-200.993817	160.415494	21.167258	
1.878000	48.953577	-200.946283	160.384988	21.166440	
1.879000	48.953579	-200.891778	160.350009	21.165479	
1.880000	48.953581	-200.830341	160.310580	21.164375	
1.881000	48.953584	-200.762014	160.266729	21.163127	
1.882000	48.953587	-200.686847	160.218489	21.161733	
1.883000	48.953591	-200.604896	160.165896	21.160192	
1.884000	48.953595	-200.516223	160.108989	21.158503	
1.885000	48.953599	-200.420897	160.047811	21.156666	
1.886000	48.953604	-200.318990	159.982411	21.154679	
1.887000	48.953609	-200.210583	159.912839	21.152543	
1.888000	48.953614	-200.095761	159.839150	21.150255	
1.889000	48.953619	-199.974614	159.761401	21.147816	
1.890000	48.953625	-199.847238	159.679656	21.145224	
1.891000	48.953632	-199.713734	159.593977	21.142480	
1.892000	48.953638	-199.574209	159.504435	21.139583	
1.893000	48.953645	-199.428774	159.411099	21.136532	
1.894000	48.953652	-199.277544	159.314044	21.133327	
1.895000	48.953659	-199.120639	159.213348	21.129968	
1.896000	48.953667	-198.958185	159.109090	21.126455	
1.897000	48.953674	-198.790310	159.001354	21.122787	
1.898000	48.953682	-198.617146	158.890223	21.118964	
1.899000	48.953690	-198.438831	158.775786	21.114987	
1.900000	48.953699	-198.255505	158.658133	21.110855	
1.901000	48.953707	-198.067310	158.537356	21.106569	
1.902000	48.953716	-197.874394	158.413548	21.102128	
1.903000	48.953724	-197.676906	158.286807	21.097532	
1.904000	48.953733	-197.474999	158.157229	21.092783	
1.905000	48.953742	-197.268826	158.024914	21.087881	
1.906000	48.953751	-197.058545	157.889962	21.082825	
1.907000	48.953761	-196.844316	157.752476	21.077616	
1.908000	48.953770	-196.626298	157.612558	21.072256	
1.909000	48.953779	-196.404654	157.470314	21.066743	
1.910000	48.953788	-196.179547	157.325847	21.061080	
1.911000	48.953798	-195.951143	157.179264	21.055266	
1.912000	48.953807	-195.719606	157.030670	21.049303	
1.913000	48.953816	-195.485103	156.880173	21.043190	
1.914000	48.953825	-195.247801	156.727879	21.036930	
1.915000	48.953835	-195.007864	156.573894	21.030522	
1.916000	48.953844	-194.765462	156.418327	21.023968	
1.917000	48.953853	-194.520758	156.261282	21.017269	
1.918000	48.953862	-194.273919	156.102868	21.010425	
1.919000	48.953870	-194.025111	155.943189	21.003437	
1.920000	48.953879	-193.774496	155.782350	20.996308	
1.921000	48.953888	-193.522237	155.620457	20.989036	
1.922000	48.953896	-193.268497	155.457613	20.981625	
1.923000	48.953904	-193.013435	155.293920	20.974075	
1.924000	48.953912	-192.757209	155.129480	20.966387	
1.925000	48.953920	-192.499977	154.964394	20.958563	
1.926000	48.953928	-192.241892	154.798761	20.950603	
1.927000	48.953935	-191.983108	154.632679	20.942510	
1.928000	48.953943	-191.723775	154.466245	20.934285	
1.929000	48.953950	-191.464042	154.299553	20.925929	
1.930000	48.953957	-191.204054	154.132699	20.917444	
1.931000	48.953963	-190.943957	153.965773	20.908833	
1.932000	48.953970	-190.683891	153.798867	20.900096	
1.933000	48.953976	-190.423996	153.632072	20.891236	
1.934000	48.953982	-190.164410	153.465474	20.882256	
1.935000	48.953988	-189.905267	153.299161	20.873158	
1.936000	48.953994	-189.646702	153.133218	20.863945	
1.937000	48.953999	-189.388847	152.967731	20.854620	
1.938000	48.954005	-189.131830	152.802782	20.845186	
1.939000	48.954010	-188.875781	152.638454	20.835647	
1.940000	48.954015	-188.620828	152.474829	20.826008	
1.941000	48.954020	-188.367097	152.311988	20.816272	
1.942000	48.954025	-188.114714	152.150013	20.806446	
1.943000	48.954030	-187.863805	151.988984	20.796534	
1.944000	48.954035	-187.614497	151.828982	20.786543	
1.945000	48.954040	-187.366917	151.670089	20.776480	
1.946000	48.954045	-187.121193	151.512387	20.766353	
1.947000	48.954050	-186.877454	151.355959	20.756170	
1.948000	48.954055	-186.635833	151.200891	20.745939	
1.949000	48.954061	-186.396466	151.047269	20.735672	
1.950000	48.954067	-186.159489	150.895182	20.725379	
1.951000	48.954073	-185.925045	150.744720	20.715071	
1.952000	48.954079	-185.693281	150.595979	20.704763	
1.953000	48.954086	-185.464349	150.449056	20.694467	
1.954000	48.954093	-185.238408	150.304052	20.684198	
1.955000	48.954100	-185.015621	150.161073	20.673973	
1.956000	48.954108	-184.796161	150.020229	20.663806	
1.957000	48.954117	-184.580208	149.881636	20.653716	
1.958000	48.954126	-184.367949	149.745415	20.643719	
1.959000	48.954136	-184.159582	149.611692	20.633835	
1.960000	48.954146	-183.955313	149.480600	20.624080	
1.961000	48.954158	-183.755361	149.352278	20.614473	
1.962000	48.954170	-183.559951	149.226872	20.605031	
1.963000	48.954182	-183.369323	149.104536	20.595771	
1.964000	48.954196	-183.183725	148.985428	20.586709	
1.965000	48.954210	-183.003417	148.869717	20.577860	
1.966000	48.954225	-182.828673	148.757576	20.569237	
1.967000	48.954241	-182.659773	148.649187	20.560852	
1.968000	48.954258	-182.497011	148.544737	20.552718	
1.969000	48.954275	-182.340692	148.444423	20.544843	
1.970000	48.954293	-182.191128	148.348445	20.537239	
1.971000	48.954312	-182.048643	148.257011	20.529914	
1.972000	48.954331	-181.913567	148.170332	20.522880	
1.973000	48.954351	-181.786239	148.088626	20.516148	
1.974000	48.954371	-181.667001	148.012112	20.509733	
1.975000	48.954391	-181.556202	147.941015	20.503654	
1.976000	48.954412	-181.454192	147.875558	20.497932	
1.977000	48.954433	-181.361323	147.815968	20.492597	
1.978000	48.954453	-181.277943	147.762468	20.487684	
1.979000	48.954473	-181.204399	147.715281	20.483234	
1.980000	48.954493	-181.141031	147.674625	20.479296	
1.981000	48.954512	-181.088172	147.640712	20.475924	
1.982000	48.954531	-181.046142	147.613749	20.473175	
1.983000	48.954548	-181.015249	147.593934	20.471104	
1.984000	48.954565	-180.995784	147.581451	20.469758	
1.985000	48.954580	-180.988018	147.576477	20.469171	
1.986000	48.954594	-180.992202	147.579171	20.469363	
1.987000	48.954606	-181.008561	147.589678	20.470330	
1.988000	48.954616	-181.037293	147.608124	20.472052	
1.989000	48.954624	-181.078567	147.634620	20.474493	
1.990000	48.954630	-181.132521	147.669251	20.477609	
1.991000	48.954634	-181.199255	147.712083	20.481349	
1.992000	48.954636	-181.278837	147.763159	20.485663	
1.993000	48.954635	-181.371293	147.822497	20.490503	
1.994000	48.954631	-181.476615	147.890090	20.495826	
1.995000	48.954625	-181.594748	147.965904	20.501595	
1.996000	48.954617	-181.725602	148.049879	20.507775	
1.997000	48.954606	-181.869039	148.141930	20.514339	
1.998000	48.954592	-182.024885	148.241942	20.521261	
1.999000	48.954575	-182.192919	148.349776	20.528520	
2.000000	48.954556	-182.372882	148.465263	20.536098	
